# model: Weimer_deltaB of April 6, 2012
# Station: PBQ
# Station location (geographic): glon=      282.255 glat=      55.2780
# Station location (magnetic): mlon=      352.032 mlat=      65.2517
Year Month Day Hour Min Sec GeomagLat GeomagLon B_NorthGeomag B_EastGeomag B_DownGeomag
[year] [month] [day] [hour] [min] [s] [deg] [deg] [nT] [nT] [nT]
2010   4   4  19  31   0     65.252    352.032     37.658    -22.374     21.444
2010   4   4  19  32   0     65.252    352.032     44.886    -21.121     23.768
2010   4   4  19  33   0     65.252    352.032     45.642    -21.902     23.753
2010   4   4  19  34   0     65.252    352.032     43.443    -22.637     24.445
2010   4   4  19  35   0     65.252    352.032     46.817    -21.378     28.091
2010   4   4  19  36   0     65.252    352.032     52.604    -21.910     31.670
2010   4   4  19  37   0     65.252    352.032     63.084    -20.992     33.692
2010   4   4  19  38   0     65.252    352.032     71.944    -21.286     37.698
2010   4   4  19  39   0     65.252    352.032     77.842    -21.040     39.624
2010   4   4  19  40   0     65.252    352.032     81.450    -20.964     40.604
2010   4   4  19  41   0     65.252    352.032     83.774    -21.019     41.060
2010   4   4  19  42   0     65.252    352.032     81.079    -20.848     40.350
2010   4   4  19  43   0     65.252    352.032     81.797    -20.916     40.538
2010   4   4  19  44   0     65.252    352.032     81.245    -20.936     40.411
2010   4   4  19  45   0     65.252    352.032     82.557    -20.842     40.466
2010   4   4  19  46   0     65.252    352.032     84.634    -20.847     40.752
2010   4   4  19  47   0     65.252    352.032     91.220    -21.233     42.040
2010   4   4  19  48   0     65.252    352.032     98.111    -21.363     42.790
2010   4   4  19  49   0     65.252    352.032    104.769    -21.865     43.573
2010   4   4  19  50   0     65.252    352.032    106.034    -21.925     43.485
2010   4   4  19  51   0     65.252    352.032    105.604    -22.067     42.945
2010   4   4  19  52   0     65.252    352.032    105.768    -22.376     42.474
2010   4   4  19  53   0     65.252    352.032    106.152    -22.587     41.931
2010   4   4  19  54   0     65.252    352.032    106.740    -22.889     41.169
2010   4   4  19  55   0     65.252    352.032    105.273    -23.535     40.744
2010   4   4  19  56   0     65.252    352.032    105.249    -24.113     40.733
2010   4   4  19  57   0     65.252    352.032    110.452    -23.714     41.361
2010   4   4  19  58   0     65.252    352.032    104.970    -25.438     41.143
2010   4   4  19  59   0     65.252    352.032     97.713    -24.909     40.838
2010   4   4  20   0   0     65.252    352.032     90.038    -24.811     38.708
2010   4   4  20   1   0     65.252    352.032     83.619    -24.531     38.200
2010   4   4  20   2   0     65.252    352.032     76.867    -24.019     37.200
2010   4   4  20   3   0     65.252    352.032     73.902    -23.685     36.851
2010   4   4  20   4   0     65.252    352.032     74.068    -23.524     36.812
2010   4   4  20   5   0     65.252    352.032     71.912    -23.287     36.489
2010   4   4  20   6   0     65.252    352.032     67.723    -22.744     35.715
2010   4   4  20   7   0     65.252    352.032     66.926    -22.571     35.470
2010   4   4  20   8   0     65.252    352.032     65.667    -22.278     35.147
2010   4   4  20   9   0     65.252    352.032     65.616    -22.139     35.043
2010   4   4  20  10   0     65.252    352.032     64.580    -21.908     34.871
2010   4   4  20  11   0     65.252    352.032     63.259    -21.692     34.763
2010   4   4  20  12   0     65.252    352.032     61.830    -21.708     33.992
2010   4   4  20  13   0     65.252    352.032     62.368    -21.274     34.271
2010   4   4  20  14   0     65.252    352.032     63.207    -21.153     34.256
2010   4   4  20  15   0     65.252    352.032     64.653    -21.179     34.282
2010   4   4  20  16   0     65.252    352.032     65.674    -21.251     34.461
2010   4   4  20  17   0     65.252    352.032     65.656    -21.202     34.576
2010   4   4  20  18   0     65.252    352.032     64.924    -21.073     34.613
2010   4   4  20  19   0     65.252    352.032     64.545    -21.185     34.744
2010   4   4  20  20   0     65.252    352.032     63.277    -21.069     33.986
2010   4   4  20  21   0     65.252    352.032     61.670    -20.582     33.214
2010   4   4  20  22   0     65.252    352.032     59.402    -20.227     32.078
2010   4   4  20  23   0     65.252    352.032     55.195    -20.576     28.878
2010   4   4  20  24   0     65.252    352.032     53.353    -19.707     25.278
2010   4   4  20  25   0     65.252    352.032     50.877    -19.101     23.177
2010   4   4  20  26   0     65.252    352.032     48.609    -18.764     22.179
2010   4   4  20  27   0     65.252    352.032     46.756    -18.616     21.548
2010   4   4  20  28   0     65.252    352.032     47.077    -18.409     21.492
2010   4   4  20  29   0     65.252    352.032     46.830    -18.213     21.130
2010   4   4  20  30   0     65.252    352.032     46.971    -17.821     20.886
2010   4   4  20  31   0     65.252    352.032     46.856    -17.258     20.408
2010   4   4  20  32   0     65.252    352.032     41.225    -18.191     19.553
2010   4   4  20  33   0     65.252    352.032     43.214    -17.349     19.924
2010   4   4  20  34   0     65.252    352.032     43.659    -17.020     19.862
2010   4   4  20  35   0     65.252    352.032     45.788    -16.471     20.548
2010   4   4  20  36   0     65.252    352.032     47.062    -15.990     20.647
2010   4   4  20  37   0     65.252    352.032     48.028    -16.061     21.092
2010   4   4  20  38   0     65.252    352.032     49.983    -17.450     23.734
2010   4   4  20  39   0     65.252    352.032     51.633    -18.110     25.211
2010   4   4  20  40   0     65.252    352.032     57.521    -18.885     25.812
2010   4   4  20  41   0     65.252    352.032     59.817    -19.046     26.261
2010   4   4  20  42   0     65.252    352.032     61.399    -19.089     26.683
2010   4   4  20  43   0     65.252    352.032     59.875    -18.474     25.545
2010   4   4  20  44   0     65.252    352.032     58.380    -18.128     24.828
2010   4   4  20  45   0     65.252    352.032     55.347    -17.718     23.732
2010   4   4  20  46   0     65.252    352.032     50.317    -17.279     21.977
2010   4   4  20  47   0     65.252    352.032     44.678    -16.983     20.887
2010   4   4  20  48   0     65.252    352.032     39.317    -16.711     19.853
2010   4   4  20  49   0     65.252    352.032     36.794    -16.392     19.788
2010   4   4  20  50   0     65.252    352.032     35.614    -16.464     19.151
2010   4   4  20  51   0     65.252    352.032     35.845    -16.616     18.518
2010   4   4  20  52   0     65.252    352.032     34.045    -16.691     17.396
2010   4   4  20  53   0     65.252    352.032     35.531    -16.620     15.218
2010   4   4  20  54   0     65.252    352.032     35.630    -16.624     12.997
2010   4   4  20  55   0     65.252    352.032     36.489    -16.645     11.811
2010   4   4  20  56   0     65.252    352.032     33.697    -17.355      9.714
2010   4   4  20  57   0     65.252    352.032     36.799    -18.349      7.544
2010   4   4  20  58   0     65.252    352.032     36.393    -18.195      6.740
2010   4   4  20  59   0     65.252    352.032     37.262    -18.352      6.554
2010   4   4  21   0   0     65.252    352.032     36.814    -18.611      6.589
2010   4   4  21   1   0     65.252    352.032     36.925    -18.632      6.775
2010   4   4  21   2   0     65.252    352.032     36.198    -18.781      7.006
2010   4   4  21   3   0     65.252    352.032     35.756    -18.913      7.362
2010   4   4  21   4   0     65.252    352.032     35.892    -19.038      7.652
2010   4   4  21   5   0     65.252    352.032     35.714    -19.125      8.589
2010   4   4  21   6   0     65.252    352.032     35.571    -19.221      9.678
2010   4   4  21   7   0     65.252    352.032     35.851    -19.218     10.354
2010   4   4  21   8   0     65.252    352.032     36.200    -19.201     11.063
2010   4   4  21   9   0     65.252    352.032     36.332    -18.956     11.266
2010   4   4  21  10   0     65.252    352.032     36.007    -18.995     12.256
2010   4   4  21  11   0     65.252    352.032     35.929    -19.096     13.212
2010   4   4  21  12   0     65.252    352.032     35.443    -19.006     13.733
2010   4   4  21  13   0     65.252    352.032     35.953    -19.205     14.765
2010   4   4  21  14   0     65.252    352.032     36.678    -19.493     16.014
2010   4   4  21  15   0     65.252    352.032     37.391    -19.789     17.197
2010   4   4  21  16   0     65.252    352.032     38.221    -20.172     18.522
2010   4   4  21  17   0     65.252    352.032     39.365    -20.643     19.993
2010   4   4  21  18   0     65.252    352.032     40.651    -21.027     20.745
2010   4   4  21  19   0     65.252    352.032     41.718    -21.199     21.357
2010   4   4  21  20   0     65.252    352.032     41.923    -21.089     21.317
2010   4   4  21  21   0     65.252    352.032     42.302    -20.973     21.370
2010   4   4  21  22   0     65.252    352.032     42.828    -20.884     21.579
2010   4   4  21  23   0     65.252    352.032     44.228    -20.835     22.622
2010   4   4  21  24   0     65.252    352.032     44.915    -20.656     24.251
2010   4   4  21  25   0     65.252    352.032     44.476    -20.394     23.055
2010   4   4  21  26   0     65.252    352.032     44.165    -20.282     22.121
2010   4   4  21  27   0     65.252    352.032     41.965    -20.081     20.134
2010   4   4  21  28   0     65.252    352.032     40.368    -19.496     19.064
2010   4   4  21  29   0     65.252    352.032     39.503    -18.736     17.937
2010   4   4  21  30   0     65.252    352.032     36.771    -17.881     16.262
2010   4   4  21  31   0     65.252    352.032     36.607    -17.655     15.138
2010   4   4  21  32   0     65.252    352.032     37.181    -17.651     13.630
2010   4   4  21  33   0     65.252    352.032     35.263    -16.430     11.984
2010   4   4  21  34   0     65.252    352.032     35.711    -15.203     10.687
2010   4   4  21  35   0     65.252    352.032     39.198    -14.761     11.296
2010   4   4  21  36   0     65.252    352.032     39.756    -14.726     10.653
2010   4   4  21  37   0     65.252    352.032     39.959    -14.694      9.901
2010   4   4  21  38   0     65.252    352.032     40.141    -14.499      9.665
2010   4   4  21  39   0     65.252    352.032     39.765    -14.039     10.329
2010   4   4  21  40   0     65.252    352.032     39.227    -13.577     11.190
2010   4   4  21  41   0     65.252    352.032     38.966    -13.239     12.035
2010   4   4  21  42   0     65.252    352.032     38.784    -13.003     12.651
2010   4   4  21  43   0     65.252    352.032     38.655    -12.719     13.644
2010   4   4  21  44   0     65.252    352.032     38.622    -12.446     14.453
2010   4   4  21  45   0     65.252    352.032     38.696    -12.319     15.012
2010   4   4  21  46   0     65.252    352.032     38.870    -12.346     15.336
2010   4   4  21  47   0     65.252    352.032     38.823    -12.140     15.775
2010   4   4  21  48   0     65.252    352.032     38.908    -11.896     16.072
2010   4   4  21  49   0     65.252    352.032     39.640    -11.694     16.986
2010   4   4  21  50   0     65.252    352.032     39.865    -11.553     17.450
2010   4   4  21  51   0     65.252    352.032     39.757    -11.467     17.676
2010   4   4  21  52   0     65.252    352.032     39.467    -11.385     18.079
2010   4   4  21  53   0     65.252    352.032     39.688    -11.494     17.628
2010   4   4  21  54   0     65.252    352.032     38.926    -11.571     17.023
2010   4   4  21  55   0     65.252    352.032     37.976    -11.640     16.634
2010   4   4  21  56   0     65.252    352.032     36.966    -11.866     16.065
2010   4   4  21  57   0     65.252    352.032     37.464    -11.297     16.673
2010   4   4  21  58   0     65.252    352.032     38.219    -10.883     17.413
2010   4   4  21  59   0     65.252    352.032     40.334    -10.678     17.933
2010   4   4  22   0   0     65.252    352.032     44.613    -10.822     18.220
2010   4   4  22   1   0     65.252    352.032     48.293    -11.100     18.184
2010   4   4  22   2   0     65.252    352.032     52.084    -11.341     18.419
2010   4   4  22   3   0     65.252    352.032     54.915    -11.213     19.009
2010   4   4  22   4   0     65.252    352.032     57.722    -11.163     19.446
2010   4   4  22   5   0     65.252    352.032     63.693    -11.451     19.960
2010   4   4  22   6   0     65.252    352.032     70.500    -11.808     22.394
2010   4   4  22   7   0     65.252    352.032     75.719    -11.868     27.320
2010   4   4  22   8   0     65.252    352.032     84.607    -13.549     26.881
2010   4   4  22   9   0     65.252    352.032     96.974    -14.954     27.596
2010   4   4  22  10   0     65.252    352.032    111.010    -15.611     26.871
2010   4   4  22  11   0     65.252    352.032    123.121    -18.150     21.786
2010   4   4  22  12   0     65.252    352.032    127.237    -19.104     19.981
2010   4   4  22  13   0     65.252    352.032    130.432    -19.721     18.721
2010   4   4  22  14   0     65.252    352.032    135.919    -20.922     18.050
2010   4   4  22  15   0     65.252    352.032    126.580    -18.873     19.335
2010   4   4  22  16   0     65.252    352.032    124.696    -18.168     19.412
2010   4   4  22  17   0     65.252    352.032    125.674    -17.735     18.654
2010   4   4  22  18   0     65.252    352.032    124.083    -16.941     18.774
2010   4   4  22  19   0     65.252    352.032    127.460    -17.941     18.942
2010   4   4  22  20   0     65.252    352.032    127.817    -17.892     17.939
2010   4   4  22  21   0     65.252    352.032    128.152    -18.084     18.283
2010   4   4  22  22   0     65.252    352.032    129.684    -18.510     18.038
2010   4   4  22  23   0     65.252    352.032    128.616    -18.129     17.802
2010   4   4  22  24   0     65.252    352.032    127.743    -17.918     17.985
2010   4   4  22  25   0     65.252    352.032    125.285    -17.181     18.183
2010   4   4  22  26   0     65.252    352.032    124.532    -16.915     18.496
2010   4   4  22  27   0     65.252    352.032    121.571    -16.103     19.053
2010   4   4  22  28   0     65.252    352.032    120.846    -15.904     19.127
2010   4   4  22  29   0     65.252    352.032    119.603    -15.504     19.269
2010   4   4  22  30   0     65.252    352.032    126.769    -16.359     17.864
2010   4   4  22  31   0     65.252    352.032    128.583    -16.601     16.961
2010   4   4  22  32   0     65.252    352.032    136.041    -17.642     12.455
2010   4   4  22  33   0     65.252    352.032    144.884    -19.286      5.954
2010   4   4  22  34   0     65.252    352.032    143.960    -19.069      4.969
2010   4   4  22  35   0     65.252    352.032    142.928    -18.589      3.737
2010   4   4  22  36   0     65.252    352.032    143.809    -18.471      2.450
2010   4   4  22  37   0     65.252    352.032    143.868    -18.512      0.667
2010   4   4  22  38   0     65.252    352.032    144.289    -18.797     -0.859
2010   4   4  22  39   0     65.252    352.032    144.255    -18.904     -1.719
2010   4   4  22  40   0     65.252    352.032    146.252    -19.478     -3.419
2010   4   4  22  41   0     65.252    352.032    149.220    -20.255     -5.482
2010   4   4  22  42   0     65.252    352.032    149.738    -20.552     -7.088
2010   4   4  22  43   0     65.252    352.032    151.940    -21.579    -10.294
2010   4   4  22  44   0     65.252    352.032    154.132    -22.681    -13.671
2010   4   4  22  45   0     65.252    352.032    156.843    -24.360    -19.257
2010   4   4  22  46   0     65.252    352.032    160.763    -26.164    -26.526
2010   4   4  22  47   0     65.252    352.032    159.697    -25.915    -26.386
2010   4   4  22  48   0     65.252    352.032    158.896    -25.784    -26.686
2010   4   4  22  49   0     65.252    352.032    160.894    -26.603    -30.371
2010   4   4  22  50   0     65.252    352.032    159.549    -26.301    -29.632
2010   4   4  22  51   0     65.252    352.032    158.400    -26.101    -29.025
2010   4   4  22  52   0     65.252    352.032    156.687    -25.635    -28.124
2010   4   4  22  53   0     65.252    352.032    153.275    -24.492    -24.338
2010   4   4  22  54   0     65.252    352.032    149.332    -22.817    -19.276
2010   4   4  22  55   0     65.252    352.032    144.871    -21.033    -14.586
2010   4   4  22  56   0     65.252    352.032    140.134    -19.619    -11.168
2010   4   4  22  57   0     65.252    352.032    137.965    -18.660     -9.383
2010   4   4  22  58   0     65.252    352.032    134.622    -17.476     -6.670
2010   4   4  22  59   0     65.252    352.032    132.218    -16.722     -4.402
2010   4   4  23   0   0     65.252    352.032    129.727    -16.279     -2.825
2010   4   4  23   1   0     65.252    352.032    130.599    -17.127     -2.596
2010   4   4  23   2   0     65.252    352.032    131.147    -17.531     -1.471
2010   4   4  23   3   0     65.252    352.032    131.252    -17.889     -0.659
2010   4   4  23   4   0     65.252    352.032    130.443    -17.819     -0.396
2010   4   4  23   5   0     65.252    352.032    133.138    -18.843     -2.544
2010   4   4  23   6   0     65.252    352.032    135.773    -19.876     -4.993
2010   4   4  23   7   0     65.252    352.032    139.408    -21.257     -8.848
2010   4   4  23   8   0     65.252    352.032    145.804    -23.657    -16.084
2010   4   4  23   9   0     65.252    352.032    146.398    -23.761    -20.946
2010   4   4  23  10   0     65.252    352.032    146.798    -23.687    -25.933
2010   4   4  23  11   0     65.252    352.032    149.552    -25.778    -33.038
2010   4   4  23  12   0     65.252    352.032    152.326    -27.940    -39.356
2010   4   4  23  13   0     65.252    352.032    150.097    -26.963    -38.354
2010   4   4  23  14   0     65.252    352.032    152.190    -28.680    -43.697
2010   4   4  23  15   0     65.252    352.032    154.210    -30.945    -49.720
2010   4   4  23  16   0     65.252    352.032    154.929    -32.337    -54.200
2010   4   4  23  17   0     65.252    352.032    154.274    -32.519    -56.014
2010   4   4  23  18   0     65.252    352.032    153.105    -32.222    -56.549
2010   4   4  23  19   0     65.252    352.032    152.268    -32.209    -57.195
2010   4   4  23  20   0     65.252    352.032    150.281    -31.453    -55.960
2010   4   4  23  21   0     65.252    352.032    147.545    -30.575    -53.285
2010   4   4  23  22   0     65.252    352.032    145.279    -29.501    -51.263
2010   4   4  23  23   0     65.252    352.032    143.186    -28.334    -49.402
2010   4   4  23  24   0     65.252    352.032    141.487    -27.710    -48.170
2010   4   4  23  25   0     65.252    352.032    139.708    -27.045    -46.752
2010   4   4  23  26   0     65.252    352.032    137.125    -25.877    -43.928
2010   4   4  23  27   0     65.252    352.032    135.213    -25.159    -42.259
2010   4   4  23  28   0     65.252    352.032    136.374    -27.301    -46.503
2010   4   4  23  29   0     65.252    352.032    135.844    -27.533    -47.483
2010   4   4  23  30   0     65.252    352.032    134.121    -27.303    -46.532
2010   4   4  23  31   0     65.252    352.032    133.092    -27.758    -47.101
2010   4   4  23  32   0     65.252    352.032    131.764    -27.709    -47.409
2010   4   4  23  33   0     65.252    352.032    130.158    -27.417    -46.748
2010   4   4  23  34   0     65.252    352.032    128.270    -26.502    -44.907
2010   4   4  23  35   0     65.252    352.032    126.864    -25.960    -43.917
2010   4   4  23  36   0     65.252    352.032    125.936    -25.857    -44.106
2010   4   4  23  37   0     65.252    352.032    125.016    -25.846    -44.192
2010   4   4  23  38   0     65.252    352.032    125.009    -26.474    -46.094
2010   4   4  23  39   0     65.252    352.032    125.248    -25.767    -48.028
2010   4   4  23  40   0     65.252    352.032    124.406    -25.043    -48.864
2010   4   4  23  41   0     65.252    352.032    122.332    -24.296    -48.503
2010   4   4  23  42   0     65.252    352.032    119.163    -22.441    -46.073
2010   4   4  23  43   0     65.252    352.032    115.590    -20.268    -42.688
2010   4   4  23  44   0     65.252    352.032    113.352    -18.574    -39.387
2010   4   4  23  45   0     65.252    352.032    113.950    -18.500    -36.822
2010   4   4  23  46   0     65.252    352.032    114.165    -19.333    -35.683
2010   4   4  23  47   0     65.252    352.032    111.908    -18.948    -32.258
2010   4   4  23  48   0     65.252    352.032    107.697    -17.111    -26.302
2010   4   4  23  49   0     65.252    352.032    106.389    -17.156    -24.974
2010   4   4  23  50   0     65.252    352.032    103.658    -17.850    -25.186
2010   4   4  23  51   0     65.252    352.032     98.338    -16.319    -25.675
2010   4   4  23  52   0     65.252    352.032     97.108    -15.660    -24.517
2010   4   4  23  53   0     65.252    352.032     95.040    -14.120    -21.112
2010   4   4  23  54   0     65.252    352.032     94.244    -13.619    -19.507
2010   4   4  23  55   0     65.252    352.032     93.450    -13.383    -19.096
2010   4   4  23  56   0     65.252    352.032     92.708    -13.296    -19.459
2010   4   4  23  57   0     65.252    352.032     91.813    -13.111    -20.528
2010   4   4  23  58   0     65.252    352.032     91.030    -13.041    -21.203
2010   4   4  23  59   0     65.252    352.032     90.415    -12.914    -18.961
2010   4   5   0   0   0     65.252    352.032     86.606    -11.291    -15.235
2010   4   5   0   1   0     65.252    352.032     81.813    -11.588    -11.737
2010   4   5   0   2   0     65.252    352.032     80.625    -10.617    -10.458
2010   4   5   0   3   0     65.252    352.032     79.680     -9.973     -9.616
2010   4   5   0   4   0     65.252    352.032     79.296    -10.191    -10.119
2010   4   5   0   5   0     65.252    352.032     78.489     -9.685     -9.597
2010   4   5   0   6   0     65.252    352.032     77.795     -9.201     -9.851
2010   4   5   0   7   0     65.252    352.032     76.831     -8.169     -9.219
2010   4   5   0   8   0     65.252    352.032     76.194     -8.048     -9.651
2010   4   5   0   9   0     65.252    352.032     75.045     -8.846     -9.689
2010   4   5   0  10   0     65.252    352.032     73.871     -9.679     -9.137
2010   4   5   0  11   0     65.252    352.032     72.470    -10.048     -8.370
2010   4   5   0  12   0     65.252    352.032     71.084    -10.331     -7.254
2010   4   5   0  13   0     65.252    352.032     70.356    -10.313     -7.175
2010   4   5   0  14   0     65.252    352.032     70.043    -10.298     -7.492
2010   4   5   0  15   0     65.252    352.032     72.735    -10.585     -8.983
2010   4   5   0  16   0     65.252    352.032     75.433    -12.779    -14.946
2010   4   5   0  17   0     65.252    352.032     76.546    -12.204    -16.946
2010   4   5   0  18   0     65.252    352.032     76.331    -12.015    -17.512
2010   4   5   0  19   0     65.252    352.032     76.013    -12.001    -17.541
2010   4   5   0  20   0     65.252    352.032     73.615    -12.758    -15.886
2010   4   5   0  21   0     65.252    352.032     72.897    -13.024    -13.969
2010   4   5   0  22   0     65.252    352.032     71.056    -13.188    -12.087
2010   4   5   0  23   0     65.252    352.032     68.763    -12.507     -9.160
2010   4   5   0  24   0     65.252    352.032     67.688    -11.922     -7.782
2010   4   5   0  25   0     65.252    352.032     66.134    -10.738     -5.862
2010   4   5   0  26   0     65.252    352.032     63.132    -10.195     -6.645
2010   4   5   0  27   0     65.252    352.032     60.938     -9.209     -6.133
2010   4   5   0  28   0     65.252    352.032     59.752     -8.381     -3.467
2010   4   5   0  29   0     65.252    352.032     58.963     -8.457     -2.542
2010   4   5   0  30   0     65.252    352.032     58.531     -8.328     -2.394
2010   4   5   0  31   0     65.252    352.032     57.493     -8.125     -0.916
2010   4   5   0  32   0     65.252    352.032     56.250     -7.986      0.440
2010   4   5   0  33   0     65.252    352.032     55.725     -7.924      0.487
2010   4   5   0  34   0     65.252    352.032     54.795     -7.867     -0.974
2010   4   5   0  35   0     65.252    352.032     55.272     -7.806     -2.202
2010   4   5   0  36   0     65.252    352.032     53.745     -7.220     -5.706
2010   4   5   0  37   0     65.252    352.032     54.319     -6.987     -7.148
2010   4   5   0  38   0     65.252    352.032     54.203     -6.581     -8.279
2010   4   5   0  39   0     65.252    352.032     53.081     -6.039     -9.158
2010   4   5   0  40   0     65.252    352.032     53.086     -5.967     -9.391
2010   4   5   0  41   0     65.252    352.032     53.427     -5.818     -9.618
2010   4   5   0  42   0     65.252    352.032     53.059     -5.557     -9.951
2010   4   5   0  43   0     65.252    352.032     52.840     -5.583    -10.082
2010   4   5   0  44   0     65.252    352.032     51.637     -5.642    -10.333
2010   4   5   0  45   0     65.252    352.032     49.651     -6.119     -9.968
2010   4   5   0  46   0     65.252    352.032     48.675     -6.483     -9.006
2010   4   5   0  47   0     65.252    352.032     47.919     -6.558     -8.047
2010   4   5   0  48   0     65.252    352.032     46.450     -6.231     -5.889
2010   4   5   0  49   0     65.252    352.032     45.548     -6.020     -3.460
2010   4   5   0  50   0     65.252    352.032     44.682     -5.961     -2.226
2010   4   5   0  51   0     65.252    352.032     44.800     -6.709     -0.220
2010   4   5   0  52   0     65.252    352.032     44.083     -6.932      2.437
2010   4   5   0  53   0     65.252    352.032     45.137     -6.913      4.014
2010   4   5   0  54   0     65.252    352.032     47.324     -7.408      4.194
2010   4   5   0  55   0     65.252    352.032     46.605     -7.633      4.672
2010   4   5   0  56   0     65.252    352.032     45.370     -7.503      4.883
2010   4   5   0  57   0     65.252    352.032     43.802     -7.418      4.489
2010   4   5   0  58   0     65.252    352.032     42.142     -7.397      3.789
2010   4   5   0  59   0     65.252    352.032     40.640     -7.406      2.822
2010   4   5   1   0   0     65.252    352.032     39.565     -7.488      1.880
2010   4   5   1   1   0     65.252    352.032     38.740     -7.828      0.545
2010   4   5   1   2   0     65.252    352.032     38.093     -7.936     -0.255
2010   4   5   1   3   0     65.252    352.032     37.589     -8.734      0.219
2010   4   5   1   4   0     65.252    352.032     36.799     -8.743      0.173
2010   4   5   1   5   0     65.252    352.032     35.014     -9.372      1.964
2010   4   5   1   6   0     65.252    352.032     35.157    -11.248      1.793
2010   4   5   1   7   0     65.252    352.032     34.056    -12.442      2.483
2010   4   5   1   8   0     65.252    352.032     37.835    -12.984      3.539
2010   4   5   1   9   0     65.252    352.032     37.760    -10.372      0.471
2010   4   5   1  10   0     65.252    352.032     36.524    -10.646      1.864
2010   4   5   1  11   0     65.252    352.032     37.297    -10.302      0.975
2010   4   5   1  12   0     65.252    352.032     36.884    -10.586      0.562
2010   4   5   1  13   0     65.252    352.032     36.791    -11.459     -0.066
2010   4   5   1  14   0     65.252    352.032     36.410    -12.994      1.378
2010   4   5   1  15   0     65.252    352.032     36.218    -13.013      0.864
2010   4   5   1  16   0     65.252    352.032     36.122    -13.082      0.884
2010   4   5   1  17   0     65.252    352.032     36.108    -13.424      1.420
2010   4   5   1  18   0     65.252    352.032     36.336    -13.035      0.388
2010   4   5   1  19   0     65.252    352.032     36.108    -13.506      1.575
2010   4   5   1  20   0     65.252    352.032     35.796    -13.819      4.010
2010   4   5   1  21   0     65.252    352.032     34.916    -13.496      3.764
2010   4   5   1  22   0     65.252    352.032     31.859    -12.375      2.285
2010   4   5   1  23   0     65.252    352.032     34.607    -11.234      1.597
2010   4   5   1  24   0     65.252    352.032     35.649    -10.221      1.722
2010   4   5   1  25   0     65.252    352.032     35.502    -10.274      1.980
2010   4   5   1  26   0     65.252    352.032     36.113    -10.203      1.962
2010   4   5   1  27   0     65.252    352.032     34.710     -9.522      1.135
2010   4   5   1  28   0     65.252    352.032     35.427     -9.352      0.976
2010   4   5   1  29   0     65.252    352.032     35.945     -8.641      0.732
2010   4   5   1  30   0     65.252    352.032     35.407     -7.583     -0.186
2010   4   5   1  31   0     65.252    352.032     35.345     -7.452      0.145
2010   4   5   1  32   0     65.252    352.032     34.854     -7.200      0.339
2010   4   5   1  33   0     65.252    352.032     35.605     -6.637      1.100
2010   4   5   1  34   0     65.252    352.032     34.577     -6.250      1.448
2010   4   5   1  35   0     65.252    352.032     33.314     -5.834      2.211
2010   4   5   1  36   0     65.252    352.032     32.645     -5.872      1.795
2010   4   5   1  37   0     65.252    352.032     32.566     -6.026      0.564
2010   4   5   1  38   0     65.252    352.032     32.730     -6.052      0.387
2010   4   5   1  39   0     65.252    352.032     32.766     -6.184     -1.342
2010   4   5   1  40   0     65.252    352.032     32.769     -6.327     -3.869
2010   4   5   1  41   0     65.252    352.032     32.646     -6.566     -6.377
2010   4   5   1  42   0     65.252    352.032     33.469     -7.199     -7.154
2010   4   5   1  43   0     65.252    352.032     32.393     -7.303    -10.182
2010   4   5   1  44   0     65.252    352.032     32.007     -7.608    -10.215
2010   4   5   1  45   0     65.252    352.032     31.479     -7.844     -9.518
2010   4   5   1  46   0     65.252    352.032     31.745     -7.488     -9.836
2010   4   5   1  47   0     65.252    352.032     32.020     -7.454     -7.596
2010   4   5   1  48   0     65.252    352.032     32.113     -7.197     -4.954
2010   4   5   1  49   0     65.252    352.032     33.937     -7.032     -2.746
2010   4   5   1  50   0     65.252    352.032     35.371     -7.060     -1.594
2010   4   5   1  51   0     65.252    352.032     34.623     -7.213     -1.562
2010   4   5   1  52   0     65.252    352.032     33.926     -7.248     -2.138
2010   4   5   1  53   0     65.252    352.032     33.078     -7.474     -2.336
2010   4   5   1  54   0     65.252    352.032     31.884     -9.341     -0.873
2010   4   5   1  55   0     65.252    352.032     31.624    -10.231      0.188
2010   4   5   1  56   0     65.252    352.032     28.880    -12.005      1.330
2010   4   5   1  57   0     65.252    352.032     30.956    -13.577      3.164
2010   4   5   1  58   0     65.252    352.032     33.377    -13.370      1.308
2010   4   5   1  59   0     65.252    352.032     33.007    -12.647     -0.325
2010   4   5   2   0   0     65.252    352.032     30.606    -12.595      0.730
2010   4   5   2   1   0     65.252    352.032     28.070    -13.113      1.541
2010   4   5   2   2   0     65.252    352.032     29.719    -12.753      1.239
2010   4   5   2   3   0     65.252    352.032     31.655    -13.262      1.936
2010   4   5   2   4   0     65.252    352.032     28.963    -13.313      3.142
2010   4   5   2   5   0     65.252    352.032     26.367    -13.046      1.958
2010   4   5   2   6   0     65.252    352.032     25.992    -12.771      1.852
2010   4   5   2   7   0     65.252    352.032     25.143    -12.446      1.595
2010   4   5   2   8   0     65.252    352.032     25.030    -12.519      1.574
2010   4   5   2   9   0     65.252    352.032     24.670    -12.319      1.464
2010   4   5   2  10   0     65.252    352.032     24.584    -12.372      1.487
2010   4   5   2  11   0     65.252    352.032     24.490    -12.433      1.481
2010   4   5   2  12   0     65.252    352.032     24.650    -12.730      1.602
2010   4   5   2  13   0     65.252    352.032     25.997    -13.185      2.348
2010   4   5   2  14   0     65.252    352.032     29.022    -13.085      4.124
2010   4   5   2  15   0     65.252    352.032     29.417    -12.752      0.706
2010   4   5   2  16   0     65.252    352.032     30.186    -12.331     -1.297
2010   4   5   2  17   0     65.252    352.032     25.238    -12.604      1.625
2010   4   5   2  18   0     65.252    352.032     20.756    -13.110      4.894
2010   4   5   2  19   0     65.252    352.032     22.547    -12.718      4.996
2010   4   5   2  20   0     65.252    352.032     21.257    -12.752      5.650
2010   4   5   2  21   0     65.252    352.032     22.615    -12.926      2.037
2010   4   5   2  22   0     65.252    352.032     28.520    -12.566      0.324
2010   4   5   2  23   0     65.252    352.032     23.330    -12.729      1.796
2010   4   5   2  24   0     65.252    352.032     22.677     -9.602     -0.545
2010   4   5   2  25   0     65.252    352.032     23.128     -8.114     -3.217
2010   4   5   2  26   0     65.252    352.032     22.679     -7.094     -5.378
2010   4   5   2  27   0     65.252    352.032     22.481     -6.733     -4.987
2010   4   5   2  28   0     65.252    352.032     20.404     -6.264     -4.452
2010   4   5   2  29   0     65.252    352.032     19.664     -6.205     -5.135
2010   4   5   2  30   0     65.252    352.032     17.095     -6.491     -8.726
2010   4   5   2  31   0     65.252    352.032     12.544     -7.240    -12.138
2010   4   5   2  32   0     65.252    352.032      5.751     -7.482    -15.915
2010   4   5   2  33   0     65.252    352.032     -5.473     -7.513    -20.185
2010   4   5   2  34   0     65.252    352.032    -13.378     -7.333    -23.387
2010   4   5   2  35   0     65.252    352.032    -19.967     -6.996    -25.564
2010   4   5   2  36   0     65.252    352.032    -21.998     -6.966    -26.095
2010   4   5   2  37   0     65.252    352.032    -25.990     -6.700    -27.235
2010   4   5   2  38   0     65.252    352.032    -27.073     -6.116    -26.844
2010   4   5   2  39   0     65.252    352.032    -27.458     -6.161    -26.852
2010   4   5   2  40   0     65.252    352.032    -27.717     -6.348    -27.008
2010   4   5   2  41   0     65.252    352.032    -24.802     -6.850    -26.421
2010   4   5   2  42   0     65.252    352.032    -21.908     -6.814    -25.587
2010   4   5   2  43   0     65.252    352.032    -29.966     -6.276    -27.149
2010   4   5   2  44   0     65.252    352.032    -32.798     -5.387    -26.663
2010   4   5   2  45   0     65.252    352.032    -35.349     -5.996    -27.786
2010   4   5   2  46   0     65.252    352.032    -40.142     -7.001    -29.786
2010   4   5   2  47   0     65.252    352.032    -42.103     -8.120    -31.050
2010   4   5   2  48   0     65.252    352.032    -44.161     -7.155    -31.950
2010   4   5   2  49   0     65.252    352.032    -45.107     -6.288    -31.995
2010   4   5   2  50   0     65.252    352.032    -49.818     -6.921    -30.128
2010   4   5   2  51   0     65.252    352.032    -55.973     -7.855    -29.941
2010   4   5   2  52   0     65.252    352.032    -63.516     -9.979    -29.143
2010   4   5   2  53   0     65.252    352.032    -68.376    -10.039    -28.738
2010   4   5   2  54   0     65.252    352.032    -75.452     -9.876    -28.893
2010   4   5   2  55   0     65.252    352.032    -78.494     -8.996    -32.848
2010   4   5   2  56   0     65.252    352.032    -81.477     -7.721    -36.703
2010   4   5   2  57   0     65.252    352.032    -81.366     -8.412    -33.858
2010   4   5   2  58   0     65.252    352.032    -82.191     -9.379    -28.147
2010   4   5   2  59   0     65.252    352.032    -77.097     -9.302    -28.203
2010   4   5   3   0   0     65.252    352.032    -68.868     -7.931    -28.263
2010   4   5   3   1   0     65.252    352.032    -60.837     -6.157    -28.387
2010   4   5   3   2   0     65.252    352.032    -57.126     -5.780    -28.270
2010   4   5   3   3   0     65.252    352.032    -46.401     -5.716    -28.482
2010   4   5   3   4   0     65.252    352.032    -41.384     -6.829    -26.130
2010   4   5   3   5   0     65.252    352.032    -36.136     -7.181    -23.508
2010   4   5   3   6   0     65.252    352.032    -26.346     -6.242    -20.009
2010   4   5   3   7   0     65.252    352.032    -18.750     -5.944    -17.570
2010   4   5   3   8   0     65.252    352.032    -14.309     -5.869    -16.275
2010   4   5   3   9   0     65.252    352.032     -4.893     -5.933    -13.871
2010   4   5   3  10   0     65.252    352.032      0.787     -6.222    -12.476
2010   4   5   3  11   0     65.252    352.032      3.727     -6.436    -11.663
2010   4   5   3  12   0     65.252    352.032      1.368     -5.992    -12.024
2010   4   5   3  13   0     65.252    352.032     -0.634     -5.724    -12.321
2010   4   5   3  14   0     65.252    352.032     -3.116     -5.566    -12.589
2010   4   5   3  15   0     65.252    352.032     -6.603     -5.473    -12.737
2010   4   5   3  16   0     65.252    352.032    -11.819     -5.542    -13.254
2010   4   5   3  17   0     65.252    352.032    -18.119     -5.642    -14.296
2010   4   5   3  18   0     65.252    352.032    -22.282     -5.371    -15.476
2010   4   5   3  19   0     65.252    352.032    -28.183     -5.111    -16.825
2010   4   5   3  20   0     65.252    352.032    -26.121     -5.595    -15.935
2010   4   5   3  21   0     65.252    352.032    -23.100     -5.704    -15.537
2010   4   5   3  22   0     65.252    352.032    -14.827     -5.081    -14.484
2010   4   5   3  23   0     65.252    352.032     -7.610     -5.021    -11.713
2010   4   5   3  24   0     65.252    352.032     -7.560     -4.937    -11.587
2010   4   5   3  25   0     65.252    352.032     -5.089     -4.730    -10.715
2010   4   5   3  26   0     65.252    352.032     -4.510     -4.741    -10.272
2010   4   5   3  27   0     65.252    352.032     -6.161     -4.747    -10.664
2010   4   5   3  28   0     65.252    352.032     -8.011     -5.089    -10.555
2010   4   5   3  29   0     65.252    352.032     -5.023     -5.616     -9.721
2010   4   5   3  30   0     65.252    352.032     -4.163     -5.498     -9.285
2010   4   5   3  31   0     65.252    352.032     -2.866     -4.936    -11.213
2010   4   5   3  32   0     65.252    352.032      1.215     -5.683    -10.551
2010   4   5   3  33   0     65.252    352.032      0.246     -5.797    -10.794
2010   4   5   3  34   0     65.252    352.032      0.709     -5.785    -11.256
2010   4   5   3  35   0     65.252    352.032     -6.208     -5.454    -13.303
2010   4   5   3  36   0     65.252    352.032    -14.563     -4.886    -15.503
2010   4   5   3  37   0     65.252    352.032    -29.917     -4.341    -17.550
2010   4   5   3  38   0     65.252    352.032    -43.909     -4.793    -17.636
2010   4   5   3  39   0     65.252    352.032    -56.110     -5.490    -17.656
2010   4   5   3  40   0     65.252    352.032    -67.211     -5.479    -17.516
2010   4   5   3  41   0     65.252    352.032    -70.737     -4.836    -18.504
2010   4   5   3  42   0     65.252    352.032    -65.688     -4.410    -20.110
2010   4   5   3  43   0     65.252    352.032    -70.406     -4.146    -19.820
2010   4   5   3  44   0     65.252    352.032    -75.026     -3.493    -20.651
2010   4   5   3  45   0     65.252    352.032    -81.261     -3.376    -19.517
2010   4   5   3  46   0     65.252    352.032    -80.741     -4.375    -16.368
2010   4   5   3  47   0     65.252    352.032    -80.378     -4.305    -16.252
2010   4   5   3  48   0     65.252    352.032    -72.601     -4.475    -16.432
2010   4   5   3  49   0     65.252    352.032    -64.575     -3.583    -16.581
2010   4   5   3  50   0     65.252    352.032    -51.828     -3.240    -16.617
2010   4   5   3  51   0     65.252    352.032    -41.252     -3.532    -16.297
2010   4   5   3  52   0     65.252    352.032    -31.274     -3.844    -15.756
2010   4   5   3  53   0     65.252    352.032    -23.393     -4.154    -15.010
2010   4   5   3  54   0     65.252    352.032    -16.191     -4.417    -14.065
2010   4   5   3  55   0     65.252    352.032     -8.404     -4.993    -12.804
2010   4   5   3  56   0     65.252    352.032     -1.617     -5.539    -11.341
2010   4   5   3  57   0     65.252    352.032      2.264     -6.004    -10.034
2010   4   5   3  58   0     65.252    352.032      4.863     -7.038     -8.450
2010   4   5   3  59   0     65.252    352.032      7.733     -7.299     -5.823
2010   4   5   4   0   0     65.252    352.032      9.946     -8.007     -3.976
2010   4   5   4   1   0     65.252    352.032     10.026     -8.313     -3.364
2010   4   5   4   2   0     65.252    352.032      9.285     -7.538     -3.647
2010   4   5   4   3   0     65.252    352.032      6.794     -7.092     -5.164
2010   4   5   4   4   0     65.252    352.032      4.784     -6.679     -7.370
2010   4   5   4   5   0     65.252    352.032      2.367     -5.387     -8.220
2010   4   5   4   6   0     65.252    352.032     -2.014     -4.776     -9.203
2010   4   5   4   7   0     65.252    352.032     -6.406     -4.188    -10.269
2010   4   5   4   8   0     65.252    352.032     -7.803     -4.108    -10.958
2010   4   5   4   9   0     65.252    352.032    -11.725     -3.965    -11.564
2010   4   5   4  10   0     65.252    352.032    -21.928     -3.282    -12.031
2010   4   5   4  11   0     65.252    352.032    -35.149     -1.785    -13.184
2010   4   5   4  12   0     65.252    352.032    -49.780     -1.594    -13.736
2010   4   5   4  13   0     65.252    352.032    -70.222     -0.369    -14.985
2010   4   5   4  14   0     65.252    352.032    -91.390      1.612    -13.362
2010   4   5   4  15   0     65.252    352.032   -110.328      2.312    -10.873
2010   4   5   4  16   0     65.252    352.032   -127.618      1.993     -8.053
2010   4   5   4  17   0     65.252    352.032   -133.499      2.598     -7.321
2010   4   5   4  18   0     65.252    352.032   -138.820      3.165     -6.617
2010   4   5   4  19   0     65.252    352.032   -129.382      4.236     -8.344
2010   4   5   4  20   0     65.252    352.032   -124.469      4.460     -8.822
2010   4   5   4  21   0     65.252    352.032   -129.754      4.852     -7.999
2010   4   5   4  22   0     65.252    352.032   -137.399      5.476     -6.889
2010   4   5   4  23   0     65.252    352.032   -150.840      5.602     -4.916
2010   4   5   4  24   0     65.252    352.032   -155.413      5.574     -4.087
2010   4   5   4  25   0     65.252    352.032   -158.374      5.834     -3.186
2010   4   5   4  26   0     65.252    352.032   -155.712      7.714     -3.668
2010   4   5   4  27   0     65.252    352.032   -156.899      8.541     -3.392
2010   4   5   4  28   0     65.252    352.032   -152.141      7.867     -4.151
2010   4   5   4  29   0     65.252    352.032   -155.592      8.412     -3.353
2010   4   5   4  30   0     65.252    352.032   -155.616      8.542     -3.121
2010   4   5   4  31   0     65.252    352.032   -158.011      9.019     -2.442
2010   4   5   4  32   0     65.252    352.032   -147.962      7.594     -4.184
2010   4   5   4  33   0     65.252    352.032   -136.661      6.173     -6.912
2010   4   5   4  34   0     65.252    352.032   -135.722      6.490     -6.293
2010   4   5   4  35   0     65.252    352.032   -128.624      5.751     -7.707
2010   4   5   4  36   0     65.252    352.032   -121.769      5.202     -8.328
2010   4   5   4  37   0     65.252    352.032   -113.843      4.805     -8.871
2010   4   5   4  38   0     65.252    352.032   -106.657      4.440     -9.341
2010   4   5   4  39   0     65.252    352.032    -99.092      4.081     -9.723
2010   4   5   4  40   0     65.252    352.032    -92.528      3.647    -10.427
2010   4   5   4  41   0     65.252    352.032    -91.177      4.000    -10.124
2010   4   5   4  42   0     65.252    352.032    -79.352      3.072    -11.307
2010   4   5   4  43   0     65.252    352.032    -76.178      2.853    -11.316
2010   4   5   4  44   0     65.252    352.032    -73.936      2.010    -11.525
2010   4   5   4  45   0     65.252    352.032    -70.328      1.324    -11.760
2010   4   5   4  46   0     65.252    352.032    -68.455      1.073    -11.822
2010   4   5   4  47   0     65.252    352.032    -70.627      0.774    -11.377
2010   4   5   4  48   0     65.252    352.032    -71.212      0.781    -11.177
2010   4   5   4  49   0     65.252    352.032    -75.662      1.059    -10.516
2010   4   5   4  50   0     65.252    352.032    -79.382      2.012    -10.459
2010   4   5   4  51   0     65.252    352.032    -81.261      2.784    -10.689
2010   4   5   4  52   0     65.252    352.032    -85.351      2.765     -9.738
2010   4   5   4  53   0     65.252    352.032    -86.534      2.935     -9.480
2010   4   5   4  54   0     65.252    352.032    -89.243      3.321     -9.087
2010   4   5   4  55   0     65.252    352.032    -91.596      3.569     -8.626
2010   4   5   4  56   0     65.252    352.032    -97.181      4.025     -7.675
2010   4   5   4  57   0     65.252    352.032   -104.557      6.208     -7.730
2010   4   5   4  58   0     65.252    352.032   -110.130      7.145     -7.102
2010   4   5   4  59   0     65.252    352.032   -117.573      8.255     -6.109
2010   4   5   5   0   0     65.252    352.032   -128.484      9.999     -4.761
2010   4   5   5   1   0     65.252    352.032   -136.035     11.267     -3.733
2010   4   5   5   2   0     65.252    352.032   -144.832     12.218     -1.792
2010   4   5   5   3   0     65.252    352.032   -151.866     13.969     -1.349
2010   4   5   5   4   0     65.252    352.032   -159.462     14.835      0.505
2010   4   5   5   5   0     65.252    352.032   -166.287     15.411      2.548
2010   4   5   5   6   0     65.252    352.032   -173.199     16.619      3.854
2010   4   5   5   7   0     65.252    352.032   -179.562     17.884      4.934
2010   4   5   5   8   0     65.252    352.032   -182.850     19.255      4.743
2010   4   5   5   9   0     65.252    352.032   -186.844     19.919      5.518
2010   4   5   5  10   0     65.252    352.032   -190.191     20.420      6.486
2010   4   5   5  11   0     65.252    352.032   -192.406     20.822      7.292
2010   4   5   5  12   0     65.252    352.032   -194.835     21.320      8.153
2010   4   5   5  13   0     65.252    352.032   -194.618     21.479      8.399
2010   4   5   5  14   0     65.252    352.032   -188.474     20.821      7.213
2010   4   5   5  15   0     65.252    352.032   -176.775     19.344      5.012
2010   4   5   5  16   0     65.252    352.032   -170.371     18.562      4.190
2010   4   5   5  17   0     65.252    352.032   -161.798     17.456      2.982
2010   4   5   5  18   0     65.252    352.032   -156.084     16.724      2.682
2010   4   5   5  19   0     65.252    352.032   -152.102     16.479      3.691
2010   4   5   5  20   0     65.252    352.032   -149.060     16.563      5.326
2010   4   5   5  21   0     65.252    352.032   -143.892     16.059      5.689
2010   4   5   5  22   0     65.252    352.032   -131.325     14.233      5.925
2010   4   5   5  23   0     65.252    352.032   -118.703     12.470      5.738
2010   4   5   5  24   0     65.252    352.032   -108.629     11.254      3.753
2010   4   5   5  25   0     65.252    352.032    -96.723      9.528      2.773
2010   4   5   5  26   0     65.252    352.032    -88.204      8.272      2.260
2010   4   5   5  27   0     65.252    352.032    -81.184      7.300      1.735
2010   4   5   5  28   0     65.252    352.032    -76.249      6.755      1.404
2010   4   5   5  29   0     65.252    352.032    -73.543      6.452      1.078
2010   4   5   5  30   0     65.252    352.032    -69.843      5.965      0.540
2010   4   5   5  31   0     65.252    352.032    -66.843      5.594      0.163
2010   4   5   5  32   0     65.252    352.032    -63.010      5.084     -0.304
2010   4   5   5  33   0     65.252    352.032    -59.693      4.620     -0.755
2010   4   5   5  34   0     65.252    352.032    -57.273      4.309     -1.047
2010   4   5   5  35   0     65.252    352.032    -54.892      4.026     -1.372
2010   4   5   5  36   0     65.252    352.032    -53.415      3.916     -1.464
2010   4   5   5  37   0     65.252    352.032    -52.780      4.037     -1.739
2010   4   5   5  38   0     65.252    352.032    -52.953      4.281     -1.851
2010   4   5   5  39   0     65.252    352.032    -55.183      4.712     -1.543
2010   4   5   5  40   0     65.252    352.032    -57.634      5.429     -1.613
2010   4   5   5  41   0     65.252    352.032    -57.792      5.608     -1.627
2010   4   5   5  42   0     65.252    352.032    -60.353      6.163     -1.393
2010   4   5   5  43   0     65.252    352.032    -61.433      6.500     -1.322
2010   4   5   5  44   0     65.252    352.032    -56.599      6.042     -2.024
2010   4   5   5  45   0     65.252    352.032    -51.441      6.390     -3.409
2010   4   5   5  46   0     65.252    352.032    -49.039      6.145     -3.496
2010   4   5   5  47   0     65.252    352.032    -49.243      6.525     -3.722
2010   4   5   5  48   0     65.252    352.032    -44.875      5.862     -3.688
2010   4   5   5  49   0     65.252    352.032    -42.042      5.568     -3.904
2010   4   5   5  50   0     65.252    352.032    -40.376      3.467     -7.964
2010   4   5   5  51   0     65.252    352.032    -42.777      4.313     -7.430
2010   4   5   5  52   0     65.252    352.032    -44.244      3.867     -9.109
2010   4   5   5  53   0     65.252    352.032    -39.607      4.825    -10.698
2010   4   5   5  54   0     65.252    352.032    -40.139      4.632    -10.484
2010   4   5   5  55   0     65.252    352.032    -35.414      3.697     -8.961
2010   4   5   5  56   0     65.252    352.032    -38.790      4.554     -7.972
2010   4   5   5  57   0     65.252    352.032    -37.995      3.900     -7.045
2010   4   5   5  58   0     65.252    352.032    -33.695      3.787     -6.322
2010   4   5   5  59   0     65.252    352.032    -34.865      4.111     -6.561
2010   4   5   6   0   0     65.252    352.032    -40.057      5.035     -6.984
2010   4   5   6   1   0     65.252    352.032    -38.027      4.790     -6.962
2010   4   5   6   2   0     65.252    352.032    -37.650      4.806     -7.159
2010   4   5   6   3   0     65.252    352.032    -38.240      4.975     -7.154
2010   4   5   6   4   0     65.252    352.032    -41.598      5.556     -7.787
2010   4   5   6   5   0     65.252    352.032    -37.476      4.501     -8.207
2010   4   5   6   6   0     65.252    352.032    -35.078      4.484     -9.230
2010   4   5   6   7   0     65.252    352.032    -40.756      5.328    -10.941
2010   4   5   6   8   0     65.252    352.032    -39.414      5.624    -10.268
2010   4   5   6   9   0     65.252    352.032    -37.978      5.851     -9.969
2010   4   5   6  10   0     65.252    352.032    -35.790      5.106     -5.739
2010   4   5   6  11   0     65.252    352.032    -35.563      6.089     -3.754
2010   4   5   6  12   0     65.252    352.032    -31.839      4.136     -0.864
2010   4   5   6  13   0     65.252    352.032    -31.294      4.151     -0.795
2010   4   5   6  14   0     65.252    352.032    -30.974      5.094     -1.749
2010   4   5   6  15   0     65.252    352.032    -30.211      6.025     -2.484
2010   4   5   6  16   0     65.252    352.032    -32.795      6.761     -2.879
2010   4   5   6  17   0     65.252    352.032    -33.652      6.439     -3.609
2010   4   5   6  18   0     65.252    352.032    -33.119      5.836     -4.396
2010   4   5   6  19   0     65.252    352.032    -31.249      5.289     -4.838
2010   4   5   6  20   0     65.252    352.032    -30.511      5.741     -4.062
2010   4   5   6  21   0     65.252    352.032    -27.669      6.252     -2.594
2010   4   5   6  22   0     65.252    352.032    -21.479      5.134     -1.357
2010   4   5   6  23   0     65.252    352.032    -20.322      5.377     -1.278
2010   4   5   6  24   0     65.252    352.032    -20.816      5.569     -1.268
2010   4   5   6  25   0     65.252    352.032    -20.378      5.333     -1.680
2010   4   5   6  26   0     65.252    352.032    -18.671      4.454     -2.994
2010   4   5   6  27   0     65.252    352.032    -17.773      3.948     -3.845
2010   4   5   6  28   0     65.252    352.032    -19.088      4.281     -2.143
2010   4   5   6  29   0     65.252    352.032    -17.995      4.287     -1.711
2010   4   5   6  30   0     65.252    352.032    -16.910      4.334     -1.522
2010   4   5   6  31   0     65.252    352.032    -16.050      4.171     -0.987
2010   4   5   6  32   0     65.252    352.032    -12.856      3.813     -1.794
2010   4   5   6  33   0     65.252    352.032    -11.885      3.816     -1.567
2010   4   5   6  34   0     65.252    352.032    -10.351      3.872     -1.496
2010   4   5   6  35   0     65.252    352.032     -9.281      4.055     -1.121
2010   4   5   6  36   0     65.252    352.032     -8.708      4.166     -0.839
2010   4   5   6  37   0     65.252    352.032     -8.391      4.060     -0.623
2010   4   5   6  38   0     65.252    352.032     -8.262      4.092     -0.358
2010   4   5   6  39   0     65.252    352.032     -7.996      4.188     -0.156
2010   4   5   6  40   0     65.252    352.032     -7.739      4.270     -0.025
2010   4   5   6  41   0     65.252    352.032     -7.179      4.493      0.090
2010   4   5   6  42   0     65.252    352.032     -6.885      4.583      0.296
2010   4   5   6  43   0     65.252    352.032     -6.716      4.882      0.488
2010   4   5   6  44   0     65.252    352.032     -6.960      5.241      0.672
2010   4   5   6  45   0     65.252    352.032     -6.546      4.864      0.743
2010   4   5   6  46   0     65.252    352.032     -6.375      4.959      0.885
2010   4   5   6  47   0     65.252    352.032     -6.344      4.926      1.108
2010   4   5   6  48   0     65.252    352.032     -6.645      4.853      1.601
2010   4   5   6  49   0     65.252    352.032     -7.245      4.865      2.281
2010   4   5   6  50   0     65.252    352.032     -8.016      5.202      2.957
2010   4   5   6  51   0     65.252    352.032     -7.580      5.695      2.488
2010   4   5   6  52   0     65.252    352.032     -7.796      5.743      2.542
2010   4   5   6  53   0     65.252    352.032     -8.035      5.798      2.529
2010   4   5   6  54   0     65.252    352.032     -8.135      5.945      2.360
2010   4   5   6  55   0     65.252    352.032     -8.332      5.881      2.576
2010   4   5   6  56   0     65.252    352.032     -8.581      5.965      2.474
2010   4   5   6  57   0     65.252    352.032     -8.098      5.661      1.808
2010   4   5   6  58   0     65.252    352.032     -7.396      5.822      0.978
2010   4   5   6  59   0     65.252    352.032     -7.185      6.131      0.634
2010   4   5   7   0   0     65.252    352.032     -8.880      7.132      1.955
2010   4   5   7   1   0     65.252    352.032     -9.367      7.122      3.381
2010   4   5   7   2   0     65.252    352.032     -8.384      6.725      4.417
2010   4   5   7   3   0     65.252    352.032     -7.320      6.397      4.831
2010   4   5   7   4   0     65.252    352.032     -7.424      6.316      4.871
2010   4   5   7   5   0     65.252    352.032    -11.032      7.693      2.470
2010   4   5   7   6   0     65.252    352.032    -10.545      6.965     -0.539
2010   4   5   7   7   0     65.252    352.032    -13.357      7.684      0.275
2010   4   5   7   8   0     65.252    352.032    -13.590      7.890     -1.607
2010   4   5   7   9   0     65.252    352.032    -13.434      7.400     -2.581
2010   4   5   7  10   0     65.252    352.032    -14.271      7.465     -3.728
2010   4   5   7  11   0     65.252    352.032    -16.516      7.898     -4.021
2010   4   5   7  12   0     65.252    352.032    -20.983      7.499     -5.942
2010   4   5   7  13   0     65.252    352.032    -28.828      8.416     -4.267
2010   4   5   7  14   0     65.252    352.032    -31.589      9.624     -4.665
2010   4   5   7  15   0     65.252    352.032    -40.665     10.794     -6.471
2010   4   5   7  16   0     65.252    352.032    -53.913     13.279     -7.705
2010   4   5   7  17   0     65.252    352.032    -69.322     16.932     -7.630
2010   4   5   7  18   0     65.252    352.032    -86.541     20.983     -6.639
2010   4   5   7  19   0     65.252    352.032   -101.083     24.565     -5.242
2010   4   5   7  20   0     65.252    352.032   -106.088     25.958     -4.703
2010   4   5   7  21   0     65.252    352.032   -106.692     26.396     -4.582
2010   4   5   7  22   0     65.252    352.032   -112.540     28.070     -3.930
2010   4   5   7  23   0     65.252    352.032   -120.192     30.481     -2.810
2010   4   5   7  24   0     65.252    352.032   -125.334     32.087     -2.259
2010   4   5   7  25   0     65.252    352.032   -147.115     37.631     -1.052
2010   4   5   7  26   0     65.252    352.032   -165.281     41.583      0.201
2010   4   5   7  27   0     65.252    352.032   -180.916     45.108      4.322
2010   4   5   7  28   0     65.252    352.032   -186.758     46.572      5.636
2010   4   5   7  29   0     65.252    352.032   -191.133     47.564      6.611
2010   4   5   7  30   0     65.252    352.032   -195.811     48.605      7.801
2010   4   5   7  31   0     65.252    352.032   -198.586     49.255      8.540
2010   4   5   7  32   0     65.252    352.032   -196.959     48.811      8.559
2010   4   5   7  33   0     65.252    352.032   -201.568     50.176      8.988
2010   4   5   7  34   0     65.252    352.032   -200.589     53.185     12.272
2010   4   5   7  35   0     65.252    352.032   -199.802     54.827     14.683
2010   4   5   7  36   0     65.252    352.032   -205.437     56.366     17.366
2010   4   5   7  37   0     65.252    352.032   -210.772     57.393     18.410
2010   4   5   7  38   0     65.252    352.032   -209.033     57.475     18.015
2010   4   5   7  39   0     65.252    352.032   -214.011     58.415     18.987
2010   4   5   7  40   0     65.252    352.032   -215.829     58.450     17.562
2010   4   5   7  41   0     65.252    352.032   -215.639     58.549     16.672
2010   4   5   7  42   0     65.252    352.032   -216.157     59.001     14.933
2010   4   5   7  43   0     65.252    352.032   -217.217     59.565     14.505
2010   4   5   7  44   0     65.252    352.032   -222.221     61.370     13.856
2010   4   5   7  45   0     65.252    352.032   -230.517     63.683     15.073
2010   4   5   7  46   0     65.252    352.032   -235.904     65.326     15.977
2010   4   5   7  47   0     65.252    352.032   -245.877     68.256     17.616
2010   4   5   7  48   0     65.252    352.032   -240.136     67.267     19.390
2010   4   5   7  49   0     65.252    352.032   -238.361     66.936     22.151
2010   4   5   7  50   0     65.252    352.032   -236.941     67.011     22.338
2010   4   5   7  51   0     65.252    352.032   -231.996     66.683     20.943
2010   4   5   7  52   0     65.252    352.032   -223.737     63.627     16.720
2010   4   5   7  53   0     65.252    352.032   -224.277     64.984     18.419
2010   4   5   7  54   0     65.252    352.032   -223.827     65.006     17.861
2010   4   5   7  55   0     65.252    352.032   -225.321     64.798     16.267
2010   4   5   7  56   0     65.252    352.032   -225.911     65.785     17.124
2010   4   5   7  57   0     65.252    352.032   -226.092     65.224     15.141
2010   4   5   7  58   0     65.252    352.032   -225.046     64.818     13.767
2010   4   5   7  59   0     65.252    352.032   -225.116     65.263     13.748
2010   4   5   8   0   0     65.252    352.032   -224.740     65.626     13.733
2010   4   5   8   1   0     65.252    352.032   -221.471     64.378     11.320
2010   4   5   8   2   0     65.252    352.032   -218.281     62.915      8.608
2010   4   5   8   3   0     65.252    352.032   -218.693     63.100      8.293
2010   4   5   8   4   0     65.252    352.032   -221.685     65.590     11.474
2010   4   5   8   5   0     65.252    352.032   -226.620     68.056     13.664
2010   4   5   8   6   0     65.252    352.032   -238.553     71.923     15.955
2010   4   5   8   7   0     65.252    352.032   -250.985     75.934     14.957
2010   4   5   8   8   0     65.252    352.032   -250.864     76.208     14.362
2010   4   5   8   9   0     65.252    352.032   -245.137     74.528     15.389
2010   4   5   8  10   0     65.252    352.032   -238.350     72.838     14.093
2010   4   5   8  11   0     65.252    352.032   -227.135     69.569     11.066
2010   4   5   8  12   0     65.252    352.032   -222.075     68.084      9.576
2010   4   5   8  13   0     65.252    352.032   -217.335     66.294      7.147
2010   4   5   8  14   0     65.252    352.032   -208.990     63.053      2.680
2010   4   5   8  15   0     65.252    352.032   -195.417     59.359     -1.036
2010   4   5   8  16   0     65.252    352.032   -184.162     56.962     -2.542
2010   4   5   8  17   0     65.252    352.032   -185.594     57.340     -2.407
2010   4   5   8  18   0     65.252    352.032   -185.111     57.840     -1.948
2010   4   5   8  19   0     65.252    352.032   -178.593     56.175     -3.473
2010   4   5   8  20   0     65.252    352.032   -173.320     55.191     -4.565
2010   4   5   8  21   0     65.252    352.032   -165.580     54.453     -5.365
2010   4   5   8  22   0     65.252    352.032   -157.605     52.480     -6.756
2010   4   5   8  23   0     65.252    352.032   -146.326     49.617     -8.398
2010   4   5   8  24   0     65.252    352.032   -150.840     51.191     -7.987
2010   4   5   8  25   0     65.252    352.032   -159.471     52.980     -7.692
2010   4   5   8  26   0     65.252    352.032   -168.978     55.251     -6.934
2010   4   5   8  27   0     65.252    352.032   -177.464     58.599     -5.443
2010   4   5   8  28   0     65.252    352.032   -185.754     61.212     -4.369
2010   4   5   8  29   0     65.252    352.032   -198.073     64.943     -2.578
2010   4   5   8  30   0     65.252    352.032   -216.908     71.573      0.935
2010   4   5   8  31   0     65.252    352.032   -232.240     76.754      1.448
2010   4   5   8  32   0     65.252    352.032   -234.046     77.502      1.165
2010   4   5   8  33   0     65.252    352.032   -241.542     80.293      0.681
2010   4   5   8  34   0     65.252    352.032   -249.505     82.377      0.321
2010   4   5   8  35   0     65.252    352.032   -257.855     83.439      0.458
2010   4   5   8  36   0     65.252    352.032   -266.427     84.465      0.614
2010   4   5   8  37   0     65.252    352.032   -274.823     86.221     -0.283
2010   4   5   8  38   0     65.252    352.032   -281.957     91.032     -2.555
2010   4   5   8  39   0     65.252    352.032   -286.722     91.830     -2.536
2010   4   5   8  40   0     65.252    352.032   -285.590     91.868     -3.343
2010   4   5   8  41   0     65.252    352.032   -283.674     91.459     -4.150
2010   4   5   8  42   0     65.252    352.032   -285.990     91.849     -4.315
2010   4   5   8  43   0     65.252    352.032   -283.949     91.045     -4.931
2010   4   5   8  44   0     65.252    352.032   -318.225    101.123     10.776
2010   4   5   8  45   0     65.252    352.032   -353.491    111.886     31.222
2010   4   5   8  46   0     65.252    352.032   -402.238    114.678     49.560
2010   4   5   8  47   0     65.252    352.032   -461.322    138.082     70.941
2010   4   5   8  48   0     65.252    352.032   -515.296    147.080     84.708
2010   4   5   8  49   0     65.252    352.032   -527.072    151.626    102.455
2010   4   5   8  50   0     65.252    352.032   -540.564    154.138    119.964
2010   4   5   8  51   0     65.252    352.032   -551.337    155.421    136.243
2010   4   5   8  52   0     65.252    352.032   -582.164    164.204    158.030
2010   4   5   8  53   0     65.252    352.032   -615.788    175.918    176.548
2010   4   5   8  54   0     65.252    352.032   -653.007    188.629    192.479
2010   4   5   8  55   0     65.252    352.032   -693.899    182.197    216.155
2010   4   5   8  56   0     65.252    352.032   -722.791    162.764    245.473
2010   4   5   8  57   0     65.252    352.032   -759.740    154.505    278.543
2010   4   5   8  58   0     65.252    352.032   -774.036    160.030    299.593
2010   4   5   8  59   0     65.252    352.032   -773.241    159.390    299.663
2010   4   5   9   0   0     65.252    352.032   -775.736    160.290    302.698
2010   4   5   9   1   0     65.252    352.032   -776.307    160.080    303.735
2010   4   5   9   2   0     65.252    352.032   -772.698    156.922    299.737
2010   4   5   9   3   0     65.252    352.032   -761.873    153.597    292.168
2010   4   5   9   4   0     65.252    352.032   -753.754    151.136    286.485
2010   4   5   9   5   0     65.252    352.032   -757.825    149.742    287.024
2010   4   5   9   6   0     65.252    352.032   -759.081    148.913    287.377
2010   4   5   9   7   0     65.252    352.032   -745.194    157.877    270.323
2010   4   5   9   8   0     65.252    352.032   -736.948    164.234    260.496
2010   4   5   9   9   0     65.252    352.032   -727.489    173.901    247.568
2010   4   5   9  10   0     65.252    352.032   -713.409    179.401    235.379
2010   4   5   9  11   0     65.252    352.032   -711.628    189.053    228.009
2010   4   5   9  12   0     65.252    352.032   -708.211    183.559    230.511
2010   4   5   9  13   0     65.252    352.032   -692.851    191.918    217.804
2010   4   5   9  14   0     65.252    352.032   -695.769    198.639    214.694
2010   4   5   9  15   0     65.252    352.032   -693.221    201.842    210.786
2010   4   5   9  16   0     65.252    352.032   -686.040    198.558    206.407
2010   4   5   9  17   0     65.252    352.032   -687.005    198.523    203.823
2010   4   5   9  18   0     65.252    352.032   -686.129    197.867    201.831
2010   4   5   9  19   0     65.252    352.032   -679.660    194.422    197.605
2010   4   5   9  20   0     65.252    352.032   -677.552    193.823    196.401
2010   4   5   9  21   0     65.252    352.032   -687.013    196.011    196.186
2010   4   5   9  22   0     65.252    352.032   -691.380    198.035    199.017
2010   4   5   9  23   0     65.252    352.032   -682.569    193.355    193.655
2010   4   5   9  24   0     65.252    352.032   -681.327    191.490    189.829
2010   4   5   9  25   0     65.252    352.032   -677.919    185.595    181.249
2010   4   5   9  26   0     65.252    352.032   -684.311    187.159    179.722
2010   4   5   9  27   0     65.252    352.032   -669.297    181.833    162.977
2010   4   5   9  28   0     65.252    352.032   -664.598    181.364    154.986
2010   4   5   9  29   0     65.252    352.032   -658.183    180.435    146.068
2010   4   5   9  30   0     65.252    352.032   -641.624    179.159    126.502
2010   4   5   9  31   0     65.252    352.032   -616.062    176.475    100.306
2010   4   5   9  32   0     65.252    352.032   -599.447    170.248     79.620
2010   4   5   9  33   0     65.252    352.032   -523.269    160.065     59.086
2010   4   5   9  34   0     65.252    352.032   -462.281    150.047     42.519
2010   4   5   9  35   0     65.252    352.032   -403.603    140.677     26.759
2010   4   5   9  36   0     65.252    352.032   -353.435    131.849     14.831
2010   4   5   9  37   0     65.252    352.032   -301.226    124.334     -1.890
2010   4   5   9  38   0     65.252    352.032   -261.221    117.811    -13.303
2010   4   5   9  39   0     65.252    352.032   -215.134    108.278    -21.342
2010   4   5   9  40   0     65.252    352.032   -188.519    102.856    -25.494
2010   4   5   9  41   0     65.252    352.032   -168.363     99.846    -28.673
2010   4   5   9  42   0     65.252    352.032   -153.979     95.086    -27.221
2010   4   5   9  43   0     65.252    352.032   -136.567     88.352    -22.419
2010   4   5   9  44   0     65.252    352.032   -114.564     80.707    -18.913
2010   4   5   9  45   0     65.252    352.032    -97.096     75.143    -19.866
2010   4   5   9  46   0     65.252    352.032    -81.941     70.603    -13.255
2010   4   5   9  47   0     65.252    352.032    -87.211     72.282    -19.109
2010   4   5   9  48   0     65.252    352.032    -92.457     74.108    -21.193
2010   4   5   9  49   0     65.252    352.032    -84.583     71.825    -18.820
2010   4   5   9  50   0     65.252    352.032    -74.597     68.949    -14.088
2010   4   5   9  51   0     65.252    352.032    -78.323     69.929    -20.530
2010   4   5   9  52   0     65.252    352.032    -84.523     71.960    -24.034
2010   4   5   9  53   0     65.252    352.032    -94.109     75.302    -26.077
2010   4   5   9  54   0     65.252    352.032   -104.770     79.079    -23.072
2010   4   5   9  55   0     65.252    352.032   -124.389     85.522    -28.780
2010   4   5   9  56   0     65.252    352.032   -142.792     91.347    -32.786
2010   4   5   9  57   0     65.252    352.032   -165.283     98.159    -35.470
2010   4   5   9  58   0     65.252    352.032   -193.698    106.773    -36.186
2010   4   5   9  59   0     65.252    352.032   -241.912    118.484    -33.566
2010   4   5  10   0   0     65.252    352.032   -306.103    132.999    -26.923
2010   4   5  10   1   0     65.252    352.032   -376.840    148.961    -24.664
2010   4   5  10   2   0     65.252    352.032   -441.684    163.028     -8.661
2010   4   5  10   3   0     65.252    352.032   -494.644    174.936      3.919
2010   4   5  10   4   0     65.252    352.032   -558.779    186.019     23.895
2010   4   5  10   5   0     65.252    352.032   -601.927    162.911     92.760
2010   4   5  10   6   0     65.252    352.032   -674.507    178.103    164.969
2010   4   5  10   7   0     65.252    352.032   -728.960    198.012    214.511
2010   4   5  10   8   0     65.252    352.032   -757.701    206.395    242.290
2010   4   5  10   9   0     65.252    352.032   -772.901    207.622    258.328
2010   4   5  10  10   0     65.252    352.032   -784.545    206.543    272.146
2010   4   5  10  11   0     65.252    352.032   -797.555    209.283    287.180
2010   4   5  10  12   0     65.252    352.032   -801.415    208.344    293.337
2010   4   5  10  13   0     65.252    352.032   -799.094    198.517    298.088
2010   4   5  10  14   0     65.252    352.032   -728.163    167.145    224.072
2010   4   5  10  15   0     65.252    352.032   -719.164    213.954    128.725
2010   4   5  10  16   0     65.252    352.032   -667.488    191.375    115.803
2010   4   5  10  17   0     65.252    352.032   -574.533    171.129     49.865
2010   4   5  10  18   0     65.252    352.032   -494.330    151.012     18.910
2010   4   5  10  19   0     65.252    352.032   -324.818    116.060    -16.540
2010   4   5  10  20   0     65.252    352.032   -225.880     95.600    -44.068
2010   4   5  10  21   0     65.252    352.032   -159.022     80.636    -47.814
2010   4   5  10  22   0     65.252    352.032   -135.660     74.249    -47.578
2010   4   5  10  23   0     65.252    352.032    -95.488     66.973    -49.824
2010   4   5  10  24   0     65.252    352.032    -52.385     59.471    -39.241
2010   4   5  10  25   0     65.252    352.032    -14.340     51.534    -26.622
2010   4   5  10  26   0     65.252    352.032    -10.888     49.164    -19.205
2010   4   5  10  27   0     65.252    352.032     -6.012     52.515    -21.473
2010   4   5  10  28   0     65.252    352.032      3.367     53.180     14.017
2010   4   5  10  29   0     65.252    352.032      5.985     52.600     14.592
2010   4   5  10  30   0     65.252    352.032     10.063     51.230     12.826
2010   4   5  10  31   0     65.252    352.032     13.472     48.932      8.853
2010   4   5  10  32   0     65.252    352.032      9.246     50.578      3.799
2010   4   5  10  33   0     65.252    352.032      4.600     52.381     -0.953
2010   4   5  10  34   0     65.252    352.032     -0.592     54.319     -5.749
2010   4   5  10  35   0     65.252    352.032     -6.115     55.518    -16.236
2010   4   5  10  36   0     65.252    352.032     -4.341     55.203    -14.223
2010   4   5  10  37   0     65.252    352.032      3.045     54.276      4.262
2010   4   5  10  38   0     65.252    352.032      2.804     54.573      3.818
2010   4   5  10  39   0     65.252    352.032     -5.943     57.405     -6.008
2010   4   5  10  40   0     65.252    352.032     -5.144     57.307     -7.271
2010   4   5  10  41   0     65.252    352.032     -5.652     57.377    -11.215
2010   4   5  10  42   0     65.252    352.032    -12.847     58.720    -25.986
2010   4   5  10  43   0     65.252    352.032    -20.577     61.235    -33.107
2010   4   5  10  44   0     65.252    352.032    -35.059     66.092    -40.301
2010   4   5  10  45   0     65.252    352.032    -51.985     70.909    -41.908
2010   4   5  10  46   0     65.252    352.032    -86.067     78.369    -51.554
2010   4   5  10  47   0     65.252    352.032    -94.050     80.673    -55.702
2010   4   5  10  48   0     65.252    352.032    -92.030     80.526    -56.173
2010   4   5  10  49   0     65.252    352.032    -98.906     82.572    -59.516
2010   4   5  10  50   0     65.252    352.032    -93.347     81.017    -58.376
2010   4   5  10  51   0     65.252    352.032    -93.249     81.075    -59.400
2010   4   5  10  52   0     65.252    352.032   -102.204     83.259    -62.720
2010   4   5  10  53   0     65.252    352.032   -106.015     84.387    -64.646
2010   4   5  10  54   0     65.252    352.032    -99.817     83.377    -64.709
2010   4   5  10  55   0     65.252    352.032   -113.925     86.014    -67.500
2010   4   5  10  56   0     65.252    352.032   -113.677     85.653    -68.009
2010   4   5  10  57   0     65.252    352.032    -94.853     80.826    -64.197
2010   4   5  10  58   0     65.252    352.032    -86.444     78.939    -62.843
2010   4   5  10  59   0     65.252    352.032    -67.970     74.678    -58.840
2010   4   5  11   0   0     65.252    352.032    -45.562     69.044    -57.425
2010   4   5  11   1   0     65.252    352.032    -24.529     62.108    -51.673
2010   4   5  11   2   0     65.252    352.032    -22.934     61.573    -50.960
2010   4   5  11   3   0     65.252    352.032    -30.360     63.532    -56.268
2010   4   5  11   4   0     65.252    352.032    -32.908     62.879    -56.621
2010   4   5  11   5   0     65.252    352.032    -38.254     63.942    -58.473
2010   4   5  11   6   0     65.252    352.032    -44.528     65.079    -60.300
2010   4   5  11   7   0     65.252    352.032    -48.687     65.237    -61.105
2010   4   5  11   8   0     65.252    352.032    -45.759     65.279    -61.590
2010   4   5  11   9   0     65.252    352.032    -45.019     65.675    -62.409
2010   4   5  11  10   0     65.252    352.032    -38.612     62.097    -59.509
2010   4   5  11  11   0     65.252    352.032    -28.530     56.898    -53.988
2010   4   5  11  12   0     65.252    352.032    -13.593     50.276    -44.136
2010   4   5  11  13   0     65.252    352.032     -5.888     47.465    -39.403
2010   4   5  11  14   0     65.252    352.032     -2.721     46.331    -37.775
2010   4   5  11  15   0     65.252    352.032     -7.710     49.026    -44.386
2010   4   5  11  16   0     65.252    352.032    -13.996     52.614    -50.938
2010   4   5  11  17   0     65.252    352.032     -6.479     51.034    -48.762
2010   4   5  11  18   0     65.252    352.032      0.116     49.880    -46.781
2010   4   5  11  19   0     65.252    352.032      3.286     51.245    -45.172
2010   4   5  11  20   0     65.252    352.032     11.826     50.212    -32.424
2010   4   5  11  21   0     65.252    352.032     15.270     50.447    -25.345
2010   4   5  11  22   0     65.252    352.032     14.381     49.584    -29.898
2010   4   5  11  23   0     65.252    352.032     16.723     50.564    -22.721
2010   4   5  11  24   0     65.252    352.032     17.160     51.255    -19.730
2010   4   5  11  25   0     65.252    352.032     12.308     53.204    -22.187
2010   4   5  11  26   0     65.252    352.032      5.022     55.602    -24.576
2010   4   5  11  27   0     65.252    352.032    -23.598     63.171    -45.984
2010   4   5  11  28   0     65.252    352.032    -36.147     66.809    -54.071
2010   4   5  11  29   0     65.252    352.032    -54.303     71.797    -64.405
2010   4   5  11  30   0     65.252    352.032    -70.228     75.812    -72.362
2010   4   5  11  31   0     65.252    352.032    -64.588     74.012    -70.750
2010   4   5  11  32   0     65.252    352.032    -67.077     73.961    -72.926
2010   4   5  11  33   0     65.252    352.032    -59.715     70.926    -70.803
2010   4   5  11  34   0     65.252    352.032    -54.486     69.646    -68.683
2010   4   5  11  35   0     65.252    352.032    -62.013     70.474    -72.860
2010   4   5  11  36   0     65.252    352.032    -68.211     71.609    -75.895
2010   4   5  11  37   0     65.252    352.032    -74.127     74.914    -78.408
2010   4   5  11  38   0     65.252    352.032    -70.556     73.655    -77.483
2010   4   5  11  39   0     65.252    352.032    -52.444     69.275    -69.502
2010   4   5  11  40   0     65.252    352.032    -34.958     65.499    -59.898
2010   4   5  11  41   0     65.252    352.032    -27.967     64.003    -55.697
2010   4   5  11  42   0     65.252    352.032    -13.623     60.348    -46.063
2010   4   5  11  43   0     65.252    352.032     -6.116     58.665    -40.096
2010   4   5  11  44   0     65.252    352.032     -0.099     57.668    -33.914
2010   4   5  11  45   0     65.252    352.032      4.518     57.353    -28.191
2010   4   5  11  46   0     65.252    352.032      5.857     58.122    -26.221
2010   4   5  11  47   0     65.252    352.032     11.053     57.863    -16.538
2010   4   5  11  48   0     65.252    352.032     11.082     58.027     -5.614
2010   4   5  11  49   0     65.252    352.032     16.185     56.604      0.895
2010   4   5  11  50   0     65.252    352.032     21.712     56.549      2.104
2010   4   5  11  51   0     65.252    352.032     22.002     58.276      5.427
2010   4   5  11  52   0     65.252    352.032     13.688     61.616     12.734
2010   4   5  11  53   0     65.252    352.032      7.589     63.607     17.125
2010   4   5  11  54   0     65.252    352.032      5.413     64.301     18.294
2010   4   5  11  55   0     65.252    352.032      4.710     64.398     18.539
2010   4   5  11  56   0     65.252    352.032      3.924     64.335     18.767
2010   4   5  11  57   0     65.252    352.032      2.768     64.730     19.077
2010   4   5  11  58   0     65.252    352.032      2.483     64.649     18.955
2010   4   5  11  59   0     65.252    352.032      2.870     64.389     18.516
2010   4   5  12   0   0     65.252    352.032      3.612     63.995     17.900
2010   4   5  12   1   0     65.252    352.032      4.354     63.719     17.304
2010   4   5  12   2   0     65.252    352.032      4.124     63.971     17.203
2010   4   5  12   3   0     65.252    352.032      4.053     64.176     17.011
2010   4   5  12   4   0     65.252    352.032      4.024     64.524     16.765
2010   4   5  12   5   0     65.252    352.032      4.084     64.984     16.351
2010   4   5  12   6   0     65.252    352.032      3.198     65.854     16.192
2010   4   5  12   7   0     65.252    352.032      3.157     65.901     15.909
2010   4   5  12   8   0     65.252    352.032      3.519     65.940     15.363
2010   4   5  12   9   0     65.252    352.032      2.854     66.332     15.217
2010   4   5  12  10   0     65.252    352.032      1.949     67.016     14.877
2010   4   5  12  11   0     65.252    352.032      1.050     67.695     14.433
2010   4   5  12  12   0     65.252    352.032      0.019     68.270     14.160
2010   4   5  12  13   0     65.252    352.032     -0.212     68.479     13.667
2010   4   5  12  14   0     65.252    352.032     -0.208     68.618     13.054
2010   4   5  12  15   0     65.252    352.032     -0.764     69.054     12.445
2010   4   5  12  16   0     65.252    352.032     -1.181     69.406     11.807
2010   4   5  12  17   0     65.252    352.032     -1.084     69.540     11.063
2010   4   5  12  18   0     65.252    352.032     -1.384     69.872     10.299
2010   4   5  12  19   0     65.252    352.032     -2.075     70.368      9.579
2010   4   5  12  20   0     65.252    352.032     -2.841     70.860      8.960
2010   4   5  12  21   0     65.252    352.032     -3.090     71.171      8.020
2010   4   5  12  22   0     65.252    352.032     -3.583     71.446      7.249
2010   4   5  12  23   0     65.252    352.032     -4.077     71.756      6.386
2010   4   5  12  24   0     65.252    352.032     -5.197     72.626      4.614
2010   4   5  12  25   0     65.252    352.032     -6.062     73.182      3.260
2010   4   5  12  26   0     65.252    352.032     -7.178     73.897      1.207
2010   4   5  12  27   0     65.252    352.032     -8.746     74.607     -0.229
2010   4   5  12  28   0     65.252    352.032     -9.178     74.739     -0.934
2010   4   5  12  29   0     65.252    352.032     -8.293     74.261     -0.933
2010   4   5  12  30   0     65.252    352.032     -6.292     73.337     -0.672
2010   4   5  12  31   0     65.252    352.032     -3.291     71.924      0.060
2010   4   5  12  32   0     65.252    352.032     -1.814     71.023      0.847
2010   4   5  12  33   0     65.252    352.032      0.261     69.773      1.743
2010   4   5  12  34   0     65.252    352.032      0.828     69.277      2.004
2010   4   5  12  35   0     65.252    352.032      0.730     68.993      2.312
2010   4   5  12  36   0     65.252    352.032      1.175     68.610      2.151
2010   4   5  12  37   0     65.252    352.032      1.580     68.414      1.657
2010   4   5  12  38   0     65.252    352.032      1.377     68.922      0.152
2010   4   5  12  39   0     65.252    352.032     10.872     63.576      2.741
2010   4   5  12  40   0     65.252    352.032     16.836     59.056      3.809
2010   4   5  12  41   0     65.252    352.032     20.711     54.374      3.450
2010   4   5  12  42   0     65.252    352.032     24.537     49.334      0.635
2010   4   5  12  43   0     65.252    352.032     24.960     45.938     -2.499
2010   4   5  12  44   0     65.252    352.032     22.703     44.292     -4.828
2010   4   5  12  45   0     65.252    352.032     19.153     44.079     -5.804
2010   4   5  12  46   0     65.252    352.032     16.320     43.658     -7.058
2010   4   5  12  47   0     65.252    352.032     14.709     43.184     -8.099
2010   4   5  12  48   0     65.252    352.032     13.563     42.893     -8.686
2010   4   5  12  49   0     65.252    352.032     11.599     42.297    -10.177
2010   4   5  12  50   0     65.252    352.032     26.532     35.931    -14.546
2010   4   5  12  51   0     65.252    352.032     23.253     35.161     13.015
2010   4   5  12  52   0     65.252    352.032     27.554     34.299     28.311
2010   4   5  12  53   0     65.252    352.032     29.654     33.276     33.049
2010   4   5  12  54   0     65.252    352.032     37.521     37.050     42.343
2010   4   5  12  55   0     65.252    352.032     42.154     36.594     30.255
2010   4   5  12  56   0     65.252    352.032     46.533     37.217     19.558
2010   4   5  12  57   0     65.252    352.032     44.700     41.327      8.053
2010   4   5  12  58   0     65.252    352.032     14.536     46.776    -43.768
2010   4   5  12  59   0     65.252    352.032    -19.926     60.509    -69.078
2010   4   5  13   0   0     65.252    352.032    -45.948     72.744    -60.588
2010   4   5  13   1   0     65.252    352.032    -70.711     84.361    -48.971
2010   4   5  13   2   0     65.252    352.032    -99.658     91.787    -51.811
2010   4   5  13   3   0     65.252    352.032   -131.687     97.804    -53.098
2010   4   5  13   4   0     65.252    352.032   -164.247    101.911    -53.978
2010   4   5  13   5   0     65.252    352.032   -156.517    100.741    -55.338
2010   4   5  13   6   0     65.252    352.032   -148.997     99.725    -56.052
2010   4   5  13   7   0     65.252    352.032   -144.075     99.154    -56.040
2010   4   5  13   8   0     65.252    352.032   -134.623     97.759    -56.221
2010   4   5  13   9   0     65.252    352.032   -124.585     96.124    -56.431
2010   4   5  13  10   0     65.252    352.032   -113.581     94.280    -56.534
2010   4   5  13  11   0     65.252    352.032   -101.797     92.156    -55.938
2010   4   5  13  12   0     65.252    352.032    -94.362     90.640    -55.585
2010   4   5  13  13   0     65.252    352.032    -91.763     89.893    -55.401
2010   4   5  13  14   0     65.252    352.032    -89.073     89.123    -55.250
2010   4   5  13  15   0     65.252    352.032    -85.299     88.187    -55.131
2010   4   5  13  16   0     65.252    352.032    -82.003     87.352    -55.058
2010   4   5  13  17   0     65.252    352.032    -82.416     87.175    -55.240
2010   4   5  13  18   0     65.252    352.032    -82.833     87.120    -55.538
2010   4   5  13  19   0     65.252    352.032    -85.925     87.243    -55.496
2010   4   5  13  20   0     65.252    352.032    -91.278     87.358    -55.066
2010   4   5  13  21   0     65.252    352.032    -97.828     87.634    -54.546
2010   4   5  13  22   0     65.252    352.032   -102.189     88.345    -54.531
2010   4   5  13  23   0     65.252    352.032   -109.211     89.546    -54.197
2010   4   5  13  24   0     65.252    352.032   -119.003     91.687    -53.737
2010   4   5  13  25   0     65.252    352.032   -131.701     94.325    -52.474
2010   4   5  13  26   0     65.252    352.032   -141.532     96.583    -51.471
2010   4   5  13  27   0     65.252    352.032   -145.791     97.522    -50.848
2010   4   5  13  28   0     65.252    352.032   -143.616     97.200    -51.360
2010   4   5  13  29   0     65.252    352.032   -146.375     97.801    -50.899
2010   4   5  13  30   0     65.252    352.032   -148.299     98.193    -50.427
2010   4   5  13  31   0     65.252    352.032   -150.859     98.710    -49.738
2010   4   5  13  32   0     65.252    352.032   -152.085     98.948    -49.114
2010   4   5  13  33   0     65.252    352.032   -144.882     97.612    -50.665
2010   4   5  13  34   0     65.252    352.032   -137.157     96.281    -52.592
2010   4   5  13  35   0     65.252    352.032   -127.622     94.676    -55.257
2010   4   5  13  36   0     65.252    352.032   -120.932     93.525    -57.276
2010   4   5  13  37   0     65.252    352.032   -119.806     93.461    -57.711
2010   4   5  13  38   0     65.252    352.032   -117.069     93.072    -58.493
2010   4   5  13  39   0     65.252    352.032   -115.824     92.981    -58.617
2010   4   5  13  40   0     65.252    352.032   -110.555     91.968    -59.392
2010   4   5  13  41   0     65.252    352.032   -108.667     91.690    -59.488
2010   4   5  13  42   0     65.252    352.032   -107.543     91.600    -59.467
2010   4   5  13  43   0     65.252    352.032   -108.570     91.983    -59.058
2010   4   5  13  44   0     65.252    352.032   -109.506     92.351    -58.633
2010   4   5  13  45   0     65.252    352.032   -110.176     92.649    -58.201
2010   4   5  13  46   0     65.252    352.032   -111.131     92.981    -57.732
2010   4   5  13  47   0     65.252    352.032   -108.810     92.518    -57.748
2010   4   5  13  48   0     65.252    352.032   -110.104     92.755    -57.047
2010   4   5  13  49   0     65.252    352.032   -109.701     92.560    -56.596
2010   4   5  13  50   0     65.252    352.032   -110.109     92.473    -55.905
2010   4   5  13  51   0     65.252    352.032   -108.789     91.971    -55.533
2010   4   5  13  52   0     65.252    352.032   -107.916     91.523    -55.077
2010   4   5  13  53   0     65.252    352.032   -107.957     91.185    -54.336
2010   4   5  13  54   0     65.252    352.032   -106.056     90.429    -54.056
2010   4   5  13  55   0     65.252    352.032   -104.074     89.627    -53.764
2010   4   5  13  56   0     65.252    352.032   -102.690     88.913    -53.319
2010   4   5  13  57   0     65.252    352.032   -101.602     88.136    -52.704
2010   4   5  13  58   0     65.252    352.032    -97.482     86.734    -52.837
2010   4   5  13  59   0     65.252    352.032    -91.167     84.694    -53.253
2010   4   5  14   0   0     65.252    352.032    -89.891     83.924    -52.827
2010   4   5  14   1   0     65.252    352.032    -87.732     82.982    -52.600
2010   4   5  14   2   0     65.252    352.032    -83.554     81.472    -52.646
2010   4   5  14   3   0     65.252    352.032    -79.002     79.850    -52.700
2010   4   5  14   4   0     65.252    352.032    -77.655     78.805    -52.136
2010   4   5  14   5   0     65.252    352.032    -78.152     77.701    -51.517
2010   4   5  14   6   0     65.252    352.032    -74.254     75.746    -53.197
2010   4   5  14   7   0     65.252    352.032    -69.506     73.445    -55.057
2010   4   5  14   8   0     65.252    352.032    -70.521     71.479    -58.033
2010   4   5  14   9   0     65.252    352.032    -72.386     70.356    -60.138
2010   4   5  14  10   0     65.252    352.032    -74.358     69.409    -62.114
2010   4   5  14  11   0     65.252    352.032    -75.804     68.442    -63.974
2010   4   5  14  12   0     65.252    352.032    -75.464     67.366    -65.333
2010   4   5  14  13   0     65.252    352.032    -77.397     66.874    -66.428
2010   4   5  14  14   0     65.252    352.032    -81.482     67.388    -66.468
2010   4   5  14  15   0     65.252    352.032    -80.816     66.137    -67.987
2010   4   5  14  16   0     65.252    352.032    -83.236     65.298    -69.989
2010   4   5  14  17   0     65.252    352.032    -86.310     65.341    -70.530
2010   4   5  14  18   0     65.252    352.032    -91.661     66.587    -69.603
2010   4   5  14  19   0     65.252    352.032    -91.694     66.299    -69.671
2010   4   5  14  20   0     65.252    352.032    -89.455     65.775    -69.286
2010   4   5  14  21   0     65.252    352.032    -95.278     67.715    -67.350
2010   4   5  14  22   0     65.252    352.032    -99.952     69.920    -64.393
2010   4   5  14  23   0     65.252    352.032   -100.186     70.889    -62.245
2010   4   5  14  24   0     65.252    352.032    -97.746     70.050    -62.551
2010   4   5  14  25   0     65.252    352.032    -95.718     69.500    -62.303
2010   4   5  14  26   0     65.252    352.032    -93.831     69.108    -61.778
2010   4   5  14  27   0     65.252    352.032    -92.383     68.731    -61.410
2010   4   5  14  28   0     65.252    352.032    -90.879     68.076    -61.517
2010   4   5  14  29   0     65.252    352.032    -89.471     67.395    -61.615
2010   4   5  14  30   0     65.252    352.032    -87.945     66.691    -61.688
2010   4   5  14  31   0     65.252    352.032    -85.813     66.502    -60.685
2010   4   5  14  32   0     65.252    352.032    -83.101     63.800    -63.860
2010   4   5  14  33   0     65.252    352.032    -80.691     62.837    -64.002
2010   4   5  14  34   0     65.252    352.032    -78.983     60.290    -66.885
2010   4   5  14  35   0     65.252    352.032    -77.409     58.473    -68.492
2010   4   5  14  36   0     65.252    352.032    -74.187     55.776    -70.625
2010   4   5  14  37   0     65.252    352.032    -72.302     53.836    -71.904
2010   4   5  14  38   0     65.252    352.032    -69.832     51.361    -73.762
2010   4   5  14  39   0     65.252    352.032    -71.413     50.197    -75.701
2010   4   5  14  40   0     65.252    352.032    -69.048     47.296    -73.916
2010   4   5  14  41   0     65.252    352.032    -65.214     43.795    -70.337
2010   4   5  14  42   0     65.252    352.032    -61.783     40.053    -65.230
2010   4   5  14  43   0     65.252    352.032    -59.692     37.712    -61.591
2010   4   5  14  44   0     65.252    352.032    -55.880     34.593    -58.523
2010   4   5  14  45   0     65.252    352.032    -52.883     32.058    -55.556
2010   4   5  14  46   0     65.252    352.032    -48.787     28.468    -51.377
2010   4   5  14  47   0     65.252    352.032    -50.894     28.948    -49.756
2010   4   5  14  48   0     65.252    352.032    -46.878     25.505    -46.154
2010   4   5  14  49   0     65.252    352.032    -48.133     25.575    -44.831
2010   4   5  14  50   0     65.252    352.032    -47.179     24.295    -42.903
2010   4   5  14  51   0     65.252    352.032    -46.896     24.078    -42.090
2010   4   5  14  52   0     65.252    352.032    -45.233     23.031    -40.905
2010   4   5  14  53   0     65.252    352.032    -43.841     22.299    -39.985
2010   4   5  14  54   0     65.252    352.032    -41.841     21.396    -39.126
2010   4   5  14  55   0     65.252    352.032    -38.226     20.107    -37.868
2010   4   5  14  56   0     65.252    352.032    -36.815     19.654    -37.190
2010   4   5  14  57   0     65.252    352.032    -36.270     19.429    -36.988
2010   4   5  14  58   0     65.252    352.032    -34.362     18.713    -36.508
2010   4   5  14  59   0     65.252    352.032    -33.334     18.366    -35.982
2010   4   5  15   0   0     65.252    352.032    -31.671     17.766    -35.355
2010   4   5  15   1   0     65.252    352.032    -30.380     17.766    -35.657
2010   4   5  15   2   0     65.252    352.032    -28.528     17.362    -35.575
2010   4   5  15   3   0     65.252    352.032    -27.764     17.583    -35.962
2010   4   5  15   4   0     65.252    352.032    -27.655     18.143    -36.521
2010   4   5  15   5   0     65.252    352.032    -27.389     18.418    -36.614
2010   4   5  15   6   0     65.252    352.032    -26.813     18.360    -36.294
2010   4   5  15   7   0     65.252    352.032    -26.858     18.529    -35.724
2010   4   5  15   8   0     65.252    352.032    -26.239     18.505    -35.457
2010   4   5  15   9   0     65.252    352.032    -26.342     19.205    -35.788
2010   4   5  15  10   0     65.252    352.032    -28.137     21.694    -37.274
2010   4   5  15  11   0     65.252    352.032    -28.117     22.454    -37.431
2010   4   5  15  12   0     65.252    352.032    -27.109     22.471    -37.721
2010   4   5  15  13   0     65.252    352.032    -26.334     22.319    -37.054
2010   4   5  15  14   0     65.252    352.032    -26.170     23.108    -37.297
2010   4   5  15  15   0     65.252    352.032    -25.719     23.593    -37.311
2010   4   5  15  16   0     65.252    352.032    -24.503     23.141    -36.889
2010   4   5  15  17   0     65.252    352.032    -24.095     23.675    -36.753
2010   4   5  15  18   0     65.252    352.032    -22.875     23.288    -36.587
2010   4   5  15  19   0     65.252    352.032    -20.976     21.940    -35.969
2010   4   5  15  20   0     65.252    352.032    -19.191     20.792    -35.736
2010   4   5  15  21   0     65.252    352.032    -17.715     19.864    -35.040
2010   4   5  15  22   0     65.252    352.032    -15.963     18.652    -34.758
2010   4   5  15  23   0     65.252    352.032    -14.784     18.084    -34.458
2010   4   5  15  24   0     65.252    352.032    -13.371     17.131    -33.698
2010   4   5  15  25   0     65.252    352.032    -11.826     15.989    -32.954
2010   4   5  15  26   0     65.252    352.032    -10.269     14.803    -32.213
2010   4   5  15  27   0     65.252    352.032     -8.811     13.696    -31.167
2010   4   5  15  28   0     65.252    352.032     -7.763     13.132    -30.660
2010   4   5  15  29   0     65.252    352.032     -6.530     12.294    -29.612
2010   4   5  15  30   0     65.252    352.032     -5.211     11.315    -28.888
2010   4   5  15  31   0     65.252    352.032     -4.333     10.953    -28.115
2010   4   5  15  32   0     65.252    352.032     -2.679      9.460    -26.919
2010   4   5  15  33   0     65.252    352.032     -1.589      8.752    -26.131
2010   4   5  15  34   0     65.252    352.032     -0.531      8.097    -25.262
2010   4   5  15  35   0     65.252    352.032      0.602      7.312    -24.377
2010   4   5  15  36   0     65.252    352.032      1.890      6.263    -23.368
2010   4   5  15  37   0     65.252    352.032      2.901      5.607    -22.608
2010   4   5  15  38   0     65.252    352.032      3.389      5.910    -22.179
2010   4   5  15  39   0     65.252    352.032      4.212      5.620    -21.624
2010   4   5  15  40   0     65.252    352.032      4.975      5.505    -21.123
2010   4   5  15  41   0     65.252    352.032      5.792      5.293    -20.636
2010   4   5  15  42   0     65.252    352.032      6.501      5.227    -20.370
2010   4   5  15  43   0     65.252    352.032      7.455      4.674    -19.801
2010   4   5  15  44   0     65.252    352.032      8.373      4.115    -19.281
2010   4   5  15  45   0     65.252    352.032      9.181      4.099    -18.895
2010   4   5  15  46   0     65.252    352.032     10.120      3.497    -18.340
2010   4   5  15  47   0     65.252    352.032     11.008      3.102    -17.872
2010   4   5  15  48   0     65.252    352.032     11.837      2.733    -17.492
2010   4   5  15  49   0     65.252    352.032     12.649      2.205    -17.079
2010   4   5  15  50   0     65.252    352.032     13.394      2.119    -16.882
2010   4   5  15  51   0     65.252    352.032     14.118      2.103    -16.747
2010   4   5  15  52   0     65.252    352.032     15.096      1.552    -16.160
2010   4   5  15  53   0     65.252    352.032     16.172     -0.011    -14.955
2010   4   5  15  54   0     65.252    352.032     17.447     -1.139    -13.807
2010   4   5  15  55   0     65.252    352.032     18.473     -2.497    -12.603
2010   4   5  15  56   0     65.252    352.032     19.464     -4.087    -11.165
2010   4   5  15  57   0     65.252    352.032     20.453     -4.821    -10.404
2010   4   5  15  58   0     65.252    352.032     21.339     -5.713     -9.553
2010   4   5  15  59   0     65.252    352.032     22.230     -6.476     -8.834
2010   4   5  16   0   0     65.252    352.032     23.123     -6.971     -8.393
2010   4   5  16   1   0     65.252    352.032     23.849     -7.488     -7.702
2010   4   5  16   2   0     65.252    352.032     24.525     -7.505     -7.515
2010   4   5  16   3   0     65.252    352.032     25.241     -7.566     -7.018
2010   4   5  16   4   0     65.252    352.032     25.980     -7.598     -6.558
2010   4   5  16   5   0     65.252    352.032     26.734     -7.701     -5.819
2010   4   5  16   6   0     65.252    352.032     27.528     -7.806     -4.876
2010   4   5  16   7   0     65.252    352.032     28.321     -7.959     -3.873
2010   4   5  16   8   0     65.252    352.032     29.158     -8.005     -2.857
2010   4   5  16   9   0     65.252    352.032     29.914     -8.109     -2.420
2010   4   5  16  10   0     65.252    352.032     30.887     -7.782     -1.935
2010   4   5  16  11   0     65.252    352.032     32.165     -6.916     -1.711
2010   4   5  16  12   0     65.252    352.032     33.017     -7.085     -0.730
2010   4   5  16  13   0     65.252    352.032     34.061     -6.941      0.212
2010   4   5  16  14   0     65.252    352.032     35.118     -6.823      1.381
2010   4   5  16  15   0     65.252    352.032     35.906     -7.137      2.873
2010   4   5  16  16   0     65.252    352.032     36.963     -7.037      4.301
2010   4   5  16  17   0     65.252    352.032     37.875     -7.140      6.373
2010   4   5  16  18   0     65.252    352.032     38.731     -7.243      8.292
2010   4   5  16  19   0     65.252    352.032     39.777     -7.080     10.282
2010   4   5  16  20   0     65.252    352.032     40.797     -6.852     13.164
2010   4   5  16  21   0     65.252    352.032     41.602     -6.932     13.613
2010   4   5  16  22   0     65.252    352.032     42.534     -6.898     13.946
2010   4   5  16  23   0     65.252    352.032     43.601     -6.780     14.020
2010   4   5  16  24   0     65.252    352.032     44.479     -6.849     14.301
2010   4   5  16  25   0     65.252    352.032     45.383     -6.936     14.216
2010   4   5  16  26   0     65.252    352.032     46.204     -7.109     14.193
2010   4   5  16  27   0     65.252    352.032     46.992     -7.308     14.068
2010   4   5  16  28   0     65.252    352.032     47.780     -7.513     13.769
2010   4   5  16  29   0     65.252    352.032     48.260     -8.014     13.379
2010   4   5  16  30   0     65.252    352.032     48.748     -8.529     12.957
2010   4   5  16  31   0     65.252    352.032     49.189     -9.131     12.240
2010   4   5  16  32   0     65.252    352.032     50.027     -9.422     11.234
2010   4   5  16  33   0     65.252    352.032     50.731     -9.811     10.346
2010   4   5  16  34   0     65.252    352.032     51.377    -10.249      9.632
2010   4   5  16  35   0     65.252    352.032     52.090    -10.758      7.930
2010   4   5  16  36   0     65.252    352.032     52.845    -11.022      8.442
2010   4   5  16  37   0     65.252    352.032     53.595    -11.268      9.047
2010   4   5  16  38   0     65.252    352.032     53.937    -11.841      9.797
2010   4   5  16  39   0     65.252    352.032     54.515    -12.147     10.701
2010   4   5  16  40   0     65.252    352.032     55.151    -12.335     11.908
2010   4   5  16  41   0     65.252    352.032     55.774    -12.608     12.595
2010   4   5  16  42   0     65.252    352.032     56.552    -12.654     13.828
2010   4   5  16  43   0     65.252    352.032     57.473    -12.577     15.028
2010   4   5  16  44   0     65.252    352.032     58.398    -12.506     16.053
2010   4   5  16  45   0     65.252    352.032     59.383    -12.375     16.988
2010   4   5  16  46   0     65.252    352.032     60.229    -12.335     17.882
2010   4   5  16  47   0     65.252    352.032     60.241    -12.874     18.790
2010   4   5  16  48   0     65.252    352.032     59.698    -13.631     20.206
2010   4   5  16  49   0     65.252    352.032     60.716    -13.302     21.296
2010   4   5  16  50   0     65.252    352.032     62.292    -12.583     22.406
2010   4   5  16  51   0     65.252    352.032     62.406    -13.060     22.712
2010   4   5  16  52   0     65.252    352.032     62.762    -13.301     23.263
2010   4   5  16  53   0     65.252    352.032     63.300    -13.535     23.471
2010   4   5  16  54   0     65.252    352.032     63.806    -13.809     23.572
2010   4   5  16  55   0     65.252    352.032     64.082    -14.224     23.649
2010   4   5  16  56   0     65.252    352.032     65.046    -14.086     24.118
2010   4   5  16  57   0     65.252    352.032     65.506    -14.307     24.388
2010   4   5  16  58   0     65.252    352.032     66.008    -14.540     24.524
2010   4   5  16  59   0     65.252    352.032     66.645    -14.589     24.972
2010   4   5  17   0   0     65.252    352.032     67.433    -14.480     25.627
2010   4   5  17   1   0     65.252    352.032     68.049    -14.513     26.210
2010   4   5  17   2   0     65.252    352.032     69.086    -14.770     26.056
2010   4   5  17   3   0     65.252    352.032     71.342    -14.449     25.516
2010   4   5  17   4   0     65.252    352.032     71.929    -14.735     25.475
2010   4   5  17   5   0     65.252    352.032     71.057    -15.554     25.937
2010   4   5  17   6   0     65.252    352.032     72.565    -15.650     25.693
2010   4   5  17   7   0     65.252    352.032     73.687    -15.771     25.524
2010   4   5  17   8   0     65.252    352.032     74.628    -16.023     25.369
2010   4   5  17   9   0     65.252    352.032     74.795    -16.561     25.410
2010   4   5  17  10   0     65.252    352.032     73.686    -17.625     25.856
2010   4   5  17  11   0     65.252    352.032     72.550    -18.555     26.312
2010   4   5  17  12   0     65.252    352.032     72.754    -18.951     26.391
2010   4   5  17  13   0     65.252    352.032     71.684    -19.861     26.903
2010   4   5  17  14   0     65.252    352.032     73.039    -19.906     26.703
2010   4   5  17  15   0     65.252    352.032     72.718    -20.360     26.999
2010   4   5  17  16   0     65.252    352.032     72.144    -20.927     27.348
2010   4   5  17  17   0     65.252    352.032     72.044    -21.310     27.526
2010   4   5  17  18   0     65.252    352.032     71.126    -21.963     28.014
2010   4   5  17  19   0     65.252    352.032     70.170    -22.641     28.595
2010   4   5  17  20   0     65.252    352.032     69.838    -23.171     28.928
2010   4   5  17  21   0     65.252    352.032     69.081    -23.808     29.409
2010   4   5  17  22   0     65.252    352.032     68.438    -24.416     29.889
2010   4   5  17  23   0     65.252    352.032     67.960    -25.018     30.342
2010   4   5  17  24   0     65.252    352.032     67.602    -25.637     30.764
2010   4   5  17  25   0     65.252    352.032     68.759    -25.830     30.606
2010   4   5  17  26   0     65.252    352.032     69.295    -26.146     30.677
2010   4   5  17  27   0     65.252    352.032     69.278    -26.659     30.894
2010   4   5  17  28   0     65.252    352.032     69.942    -27.032     30.813
2010   4   5  17  29   0     65.252    352.032     68.293    -27.974     31.428
2010   4   5  17  30   0     65.252    352.032     68.350    -28.593     31.418
2010   4   5  17  31   0     65.252    352.032     68.850    -29.103     31.305
2010   4   5  17  32   0     65.252    352.032     69.076    -29.703     31.277
2010   4   5  17  33   0     65.252    352.032     69.580    -30.318     31.144
2010   4   5  17  34   0     65.252    352.032     69.542    -31.011     31.162
2010   4   5  17  35   0     65.252    352.032     69.639    -31.584     31.168
2010   4   5  17  36   0     65.252    352.032     69.501    -32.277     31.212
2010   4   5  17  37   0     65.252    352.032     69.250    -33.000     31.273
2010   4   5  17  38   0     65.252    352.032     69.184    -33.598     31.327
2010   4   5  17  39   0     65.252    352.032     69.607    -33.930     31.344
2010   4   5  17  40   0     65.252    352.032     69.986    -34.297     31.406
2010   4   5  17  41   0     65.252    352.032     70.242    -34.897     31.467
2010   4   5  17  42   0     65.252    352.032     70.050    -35.456     31.627
2010   4   5  17  43   0     65.252    352.032     70.192    -35.835     31.787
2010   4   5  17  44   0     65.252    352.032     70.279    -36.209     31.971
2010   4   5  17  45   0     65.252    352.032     70.317    -36.600     32.154
2010   4   5  17  46   0     65.252    352.032     70.396    -37.020     32.308
2010   4   5  17  47   0     65.252    352.032     70.108    -37.490     32.501
2010   4   5  17  48   0     65.252    352.032     69.500    -37.968     32.716
2010   4   5  17  49   0     65.252    352.032     69.284    -38.388     32.896
2010   4   5  17  50   0     65.252    352.032     68.302    -38.840     33.107
2010   4   5  17  51   0     65.252    352.032     67.805    -39.103     33.303
2010   4   5  17  52   0     65.252    352.032     67.842    -39.246     33.533
2010   4   5  17  53   0     65.252    352.032     68.015    -39.182     33.796
2010   4   5  17  54   0     65.252    352.032     68.076    -39.091     34.076
2010   4   5  17  55   0     65.252    352.032     68.694    -39.013     34.403
2010   4   5  17  56   0     65.252    352.032     69.741    -38.909     34.682
2010   4   5  17  57   0     65.252    352.032     70.970    -38.795     34.907
2010   4   5  17  58   0     65.252    352.032     72.435    -38.703     35.051
2010   4   5  17  59   0     65.252    352.032     73.244    -38.661     35.289
2010   4   5  18   0   0     65.252    352.032     73.991    -38.634     35.548
2010   4   5  18   1   0     65.252    352.032     74.518    -38.718     35.790
2010   4   5  18   2   0     65.252    352.032     74.748    -38.898     35.993
2010   4   5  18   3   0     65.252    352.032     75.542    -39.004     36.052
2010   4   5  18   4   0     65.252    352.032     75.964    -39.152     36.172
2010   4   5  18   5   0     65.252    352.032     77.004    -39.277     36.104
2010   4   5  18   6   0     65.252    352.032     77.863    -39.387     36.139
2010   4   5  18   7   0     65.252    352.032     78.369    -39.590     36.208
2010   4   5  18   8   0     65.252    352.032     78.330    -39.966     36.332
2010   4   5  18   9   0     65.252    352.032     78.114    -40.340     36.540
2010   4   5  18  10   0     65.252    352.032     77.180    -40.787     36.734
2010   4   5  18  11   0     65.252    352.032     76.157    -41.139     36.909
2010   4   5  18  12   0     65.252    352.032     75.221    -41.404     37.074
2010   4   5  18  13   0     65.252    352.032     73.772    -41.651     37.259
2010   4   5  18  14   0     65.252    352.032     73.500    -41.922     37.266
2010   4   5  18  15   0     65.252    352.032     72.859    -42.199     37.297
2010   4   5  18  16   0     65.252    352.032     72.613    -42.431     37.351
2010   4   5  18  17   0     65.252    352.032     73.302    -42.615     37.481
2010   4   5  18  18   0     65.252    352.032     74.012    -42.820     37.620
2010   4   5  18  19   0     65.252    352.032     74.590    -43.032     37.774
2010   4   5  18  20   0     65.252    352.032     75.540    -43.221     37.964
2010   4   5  18  21   0     65.252    352.032     76.196    -43.447     38.119
2010   4   5  18  22   0     65.252    352.032     76.598    -43.632     38.281
2010   4   5  18  23   0     65.252    352.032     77.393    -43.715     38.509
2010   4   5  18  24   0     65.252    352.032     78.216    -43.856     38.719
2010   4   5  18  25   0     65.252    352.032     79.083    -43.937     38.936
2010   4   5  18  26   0     65.252    352.032     80.048    -44.068     39.126
2010   4   5  18  27   0     65.252    352.032     80.743    -44.238     39.316
2010   4   5  18  28   0     65.252    352.032     81.842    -44.410     39.497
2010   4   5  18  29   0     65.252    352.032     82.913    -44.531     39.632
2010   4   5  18  30   0     65.252    352.032     83.992    -44.631     39.725
2010   4   5  18  31   0     65.252    352.032     84.872    -44.824     39.854
2010   4   5  18  32   0     65.252    352.032     85.339    -44.992     40.006
2010   4   5  18  33   0     65.252    352.032     84.941    -44.902     40.133
2010   4   5  18  34   0     65.252    352.032     85.164    -44.857     40.231
2010   4   5  18  35   0     65.252    352.032     85.108    -44.833     40.348
2010   4   5  18  36   0     65.252    352.032     85.475    -44.890     40.468
2010   4   5  18  37   0     65.252    352.032     85.323    -44.788     40.603
2010   4   5  18  38   0     65.252    352.032     85.476    -44.728     40.726
2010   4   5  18  39   0     65.252    352.032     85.408    -44.699     40.869
2010   4   5  18  40   0     65.252    352.032     85.392    -44.658     41.007
2010   4   5  18  41   0     65.252    352.032     84.815    -44.573     41.169
2010   4   5  18  42   0     65.252    352.032     84.168    -44.490     41.327
2010   4   5  18  43   0     65.252    352.032     83.520    -44.401     41.458
2010   4   5  18  44   0     65.252    352.032     82.605    -44.323     41.589
2010   4   5  18  45   0     65.252    352.032     81.664    -44.194     41.691
2010   4   5  18  46   0     65.252    352.032     82.596    -44.535     41.843
2010   4   5  18  47   0     65.252    352.032     83.147    -44.796     41.995
2010   4   5  18  48   0     65.252    352.032     83.531    -44.990     42.121
2010   4   5  18  49   0     65.252    352.032     84.266    -45.210     42.236
2010   4   5  18  50   0     65.252    352.032     85.055    -45.439     42.354
2010   4   5  18  51   0     65.252    352.032     85.534    -45.548     42.445
2010   4   5  18  52   0     65.252    352.032     84.959    -45.587     42.550
2010   4   5  18  53   0     65.252    352.032     83.908    -45.521     42.631
2010   4   5  18  54   0     65.252    352.032     83.528    -45.469     42.708
2010   4   5  18  55   0     65.252    352.032     83.378    -45.417     42.767
2010   4   5  18  56   0     65.252    352.032     83.611    -45.276     42.818
2010   4   5  18  57   0     65.252    352.032     84.585    -45.398     42.929
2010   4   5  18  58   0     65.252    352.032     85.218    -45.376     43.039
2010   4   5  18  59   0     65.252    352.032     86.010    -45.366     43.168
2010   4   5  19   0   0     65.252    352.032     86.887    -45.413     43.282
2010   4   5  19   1   0     65.252    352.032     87.435    -45.420     43.371
2010   4   5  19   2   0     65.252    352.032     88.506    -45.442     43.415
2010   4   5  19   3   0     65.252    352.032     90.240    -45.494     43.402
2010   4   5  19   4   0     65.252    352.032     91.497    -45.555     43.435
2010   4   5  19   5   0     65.252    352.032     91.977    -45.446     43.411
2010   4   5  19   6   0     65.252    352.032     93.749    -45.675     43.423
2010   4   5  19   7   0     65.252    352.032     97.769    -46.075     43.129
2010   4   5  19   8   0     65.252    352.032    101.481    -46.437     42.759
2010   4   5  19   9   0     65.252    352.032    104.493    -46.700     42.387
2010   4   5  19  10   0     65.252    352.032    107.224    -46.901     41.996
2010   4   5  19  11   0     65.252    352.032    109.774    -47.244     41.807
2010   4   5  19  12   0     65.252    352.032    111.613    -47.408     41.587
2010   4   5  19  13   0     65.252    352.032    113.726    -47.700     41.363
2010   4   5  19  14   0     65.252    352.032    115.784    -47.995     41.131
2010   4   5  19  15   0     65.252    352.032    118.446    -48.309     40.796
2010   4   5  19  16   0     65.252    352.032    121.526    -48.699     40.411
2010   4   5  19  17   0     65.252    352.032    123.810    -49.093     40.280
2010   4   5  19  18   0     65.252    352.032    124.644    -49.375     40.159
2010   4   5  19  19   0     65.252    352.032    125.539    -49.556     39.858
2010   4   5  19  20   0     65.252    352.032    126.607    -49.834     39.329
2010   4   5  19  21   0     65.252    352.032    127.605    -49.955     39.215
2010   4   5  19  22   0     65.252    352.032    127.906    -50.100     39.247
2010   4   5  19  23   0     65.252    352.032    128.640    -50.210     39.177
2010   4   5  19  24   0     65.252    352.032    129.313    -50.346     39.069
2010   4   5  19  25   0     65.252    352.032    129.955    -50.533     38.883
2010   4   5  19  26   0     65.252    352.032    130.117    -50.644     38.999
2010   4   5  19  27   0     65.252    352.032    130.961    -50.737     38.864
2010   4   5  19  28   0     65.252    352.032    131.641    -50.821     38.821
2010   4   5  19  29   0     65.252    352.032    132.049    -50.878     38.852
2010   4   5  19  30   0     65.252    352.032    132.614    -50.915     38.702
2010   4   5  19  31   0     65.252    352.032    133.172    -50.941     38.525
2010   4   5  19  32   0     65.252    352.032    133.622    -50.972     38.369
2010   4   5  19  33   0     65.252    352.032    134.054    -51.033     38.231
2010   4   5  19  34   0     65.252    352.032    134.507    -51.073     38.142
2010   4   5  19  35   0     65.252    352.032    135.103    -51.110     38.007
2010   4   5  19  36   0     65.252    352.032    136.272    -51.138     37.667
2010   4   5  19  37   0     65.252    352.032    137.647    -51.167     37.235
2010   4   5  19  38   0     65.252    352.032    138.325    -51.184     37.102
2010   4   5  19  39   0     65.252    352.032    139.115    -51.166     36.963
2010   4   5  19  40   0     65.252    352.032    140.097    -51.077     36.837
2010   4   5  19  41   0     65.252    352.032    141.102    -51.005     36.640
2010   4   5  19  42   0     65.252    352.032    142.269    -50.932     36.387
2010   4   5  19  43   0     65.252    352.032    143.259    -50.838     36.298
2010   4   5  19  44   0     65.252    352.032    143.931    -50.587     36.010
2010   4   5  19  45   0     65.252    352.032    142.487    -50.247     36.184
2010   4   5  19  46   0     65.252    352.032    141.467    -49.913     36.083
2010   4   5  19  47   0     65.252    352.032    140.082    -49.567     36.071
2010   4   5  19  48   0     65.252    352.032    137.751    -49.120     36.207
2010   4   5  19  49   0     65.252    352.032    135.799    -48.744     36.154
2010   4   5  19  50   0     65.252    352.032    133.976    -48.429     36.050
2010   4   5  19  51   0     65.252    352.032    131.197    -48.121     36.391
2010   4   5  19  52   0     65.252    352.032    127.955    -47.819     36.860
2010   4   5  19  53   0     65.252    352.032    125.554    -47.615     37.042
2010   4   5  19  54   0     65.252    352.032    123.546    -47.478     37.132
2010   4   5  19  55   0     65.252    352.032    118.996    -47.086     37.936
2010   4   5  19  56   0     65.252    352.032    115.667    -46.627     38.410
2010   4   5  19  57   0     65.252    352.032    112.921    -46.161     38.522
2010   4   5  19  58   0     65.252    352.032    111.542    -45.879     38.430
2010   4   5  19  59   0     65.252    352.032    110.652    -45.676     38.313
2010   4   5  20   0   0     65.252    352.032    109.865    -45.529     38.321
2010   4   5  20   1   0     65.252    352.032    109.903    -45.484     38.220
2010   4   5  20   2   0     65.252    352.032    110.632    -45.574     38.157
2010   4   5  20   3   0     65.252    352.032    113.363    -45.866     37.611
2010   4   5  20   4   0     65.252    352.032    116.200    -46.187     37.066
2010   4   5  20   5   0     65.252    352.032    118.095    -46.415     36.756
2010   4   5  20   6   0     65.252    352.032    120.810    -46.716     36.169
2010   4   5  20   7   0     65.252    352.032    123.377    -46.987     35.531
2010   4   5  20   8   0     65.252    352.032    124.907    -47.170     35.212
2010   4   5  20   9   0     65.252    352.032    126.061    -47.324     35.015
2010   4   5  20  10   0     65.252    352.032    129.965    -47.805     34.125
2010   4   5  20  11   0     65.252    352.032    133.012    -48.211     33.495
2010   4   5  20  12   0     65.252    352.032    134.035    -48.473     33.766
2010   4   5  20  13   0     65.252    352.032    134.615    -48.610     33.900
2010   4   5  20  14   0     65.252    352.032    134.780    -48.715     34.249
2010   4   5  20  15   0     65.252    352.032    136.081    -48.882     33.963
2010   4   5  20  16   0     65.252    352.032    135.504    -48.847     34.299
2010   4   5  20  17   0     65.252    352.032    135.355    -48.824     34.316
2010   4   5  20  18   0     65.252    352.032    134.372    -48.699     34.573
2010   4   5  20  19   0     65.252    352.032    132.910    -48.533     35.078
2010   4   5  20  20   0     65.252    352.032    131.585    -48.358     35.416
2010   4   5  20  21   0     65.252    352.032    130.457    -48.204     35.702
2010   4   5  20  22   0     65.252    352.032    129.658    -48.080     35.857
2010   4   5  20  23   0     65.252    352.032    128.813    -47.948     36.028
2010   4   5  20  24   0     65.252    352.032    128.473    -47.864     35.958
2010   4   5  20  25   0     65.252    352.032    127.216    -47.692     36.390
2010   4   5  20  26   0     65.252    352.032    127.510    -47.716     36.401
2010   4   5  20  27   0     65.252    352.032    128.545    -47.821     36.080
2010   4   5  20  28   0     65.252    352.032    129.121    -47.880     36.012
2010   4   5  20  29   0     65.252    352.032    130.143    -47.990     35.761
2010   4   5  20  30   0     65.252    352.032    131.630    -48.155     35.278
2010   4   5  20  31   0     65.252    352.032    132.415    -48.215     34.852
2010   4   5  20  32   0     65.252    352.032    131.848    -48.101     34.917
2010   4   5  20  33   0     65.252    352.032    130.550    -47.901     35.402
2010   4   5  20  34   0     65.252    352.032    130.225    -47.824     35.505
2010   4   5  20  35   0     65.252    352.032    129.882    -47.748     35.747
2010   4   5  20  36   0     65.252    352.032    129.477    -47.654     35.880
2010   4   5  20  37   0     65.252    352.032    128.746    -47.506     36.047
2010   4   5  20  38   0     65.252    352.032    128.703    -47.448     35.826
2010   4   5  20  39   0     65.252    352.032    127.803    -47.270     36.068
2010   4   5  20  40   0     65.252    352.032    128.482    -47.312     35.404
2010   4   5  20  41   0     65.252    352.032    129.075    -47.345     34.876
2010   4   5  20  42   0     65.252    352.032    127.890    -47.120     34.763
2010   4   5  20  43   0     65.252    352.032    126.799    -46.915     34.832
2010   4   5  20  44   0     65.252    352.032    125.773    -46.722     35.003
2010   4   5  20  45   0     65.252    352.032    124.637    -46.512     35.399
2010   4   5  20  46   0     65.252    352.032    124.691    -46.465     35.416
2010   4   5  20  47   0     65.252    352.032    125.675    -46.553     35.145
2010   4   5  20  48   0     65.252    352.032    127.295    -46.735     34.599
2010   4   5  20  49   0     65.252    352.032    127.642    -46.727     34.392
2010   4   5  20  50   0     65.252    352.032    127.618    -46.667     34.287
2010   4   5  20  51   0     65.252    352.032    126.391    -46.431     34.542
2010   4   5  20  52   0     65.252    352.032    125.808    -46.289     34.724
2010   4   5  20  53   0     65.252    352.032    125.931    -46.248     34.793
2010   4   5  20  54   0     65.252    352.032    126.504    -46.280     34.601
2010   4   5  20  55   0     65.252    352.032    126.335    -46.183     34.791
2010   4   5  20  56   0     65.252    352.032    124.931    -45.887     35.251
2010   4   5  20  57   0     65.252    352.032    125.002    -45.813     35.380
2010   4   5  20  58   0     65.252    352.032    125.011    -45.756     35.289
2010   4   5  20  59   0     65.252    352.032    124.260    -45.598     35.219
2010   4   5  21   0   0     65.252    352.032    123.746    -45.491     35.014
2010   4   5  21   1   0     65.252    352.032    123.465    -45.420     34.865
2010   4   5  21   2   0     65.252    352.032    123.211    -45.396     34.464
2010   4   5  21   3   0     65.252    352.032    123.223    -45.405     34.097
2010   4   5  21   4   0     65.252    352.032    123.816    -45.369     34.078
2010   4   5  21   5   0     65.252    352.032    124.965    -45.367     33.958
2010   4   5  21   6   0     65.252    352.032    126.490    -45.762     32.710
2010   4   5  21   7   0     65.252    352.032    128.012    -46.001     31.939
2010   4   5  21   8   0     65.252    352.032    127.619    -45.834     32.162
2010   4   5  21   9   0     65.252    352.032    129.449    -46.083     31.269
2010   4   5  21  10   0     65.252    352.032    130.680    -46.299     30.522
2010   4   5  21  11   0     65.252    352.032    132.050    -46.437     29.953
2010   4   5  21  12   0     65.252    352.032    133.136    -46.586     29.364
2010   4   5  21  13   0     65.252    352.032    133.911    -46.536     29.307
2010   4   5  21  14   0     65.252    352.032    134.355    -46.745     28.621
2010   4   5  21  15   0     65.252    352.032    135.185    -46.853     28.152
2010   4   5  21  16   0     65.252    352.032    136.075    -46.923     27.774
2010   4   5  21  17   0     65.252    352.032    136.702    -47.026     27.358
2010   4   5  21  18   0     65.252    352.032    137.263    -47.062     27.076
2010   4   5  21  19   0     65.252    352.032    138.248    -47.052     26.857
2010   4   5  21  20   0     65.252    352.032    139.057    -47.164     26.367
2010   4   5  21  21   0     65.252    352.032    140.808    -46.882     26.645
2010   4   5  21  22   0     65.252    352.032    142.794    -46.723     26.456
2010   4   5  21  23   0     65.252    352.032    145.515    -47.021     24.899
2010   4   5  21  24   0     65.252    352.032    145.976    -46.636     25.463
2010   4   5  21  25   0     65.252    352.032    146.393    -46.327     25.779
2010   4   5  21  26   0     65.252    352.032    147.179    -46.056     25.886
2010   4   5  21  27   0     65.252    352.032    149.483    -45.916     25.063
2010   4   5  21  28   0     65.252    352.032    151.303    -45.951     23.995
2010   4   5  21  29   0     65.252    352.032    153.240    -45.993     22.809
2010   4   5  21  30   0     65.252    352.032    154.883    -46.121     21.572
2010   4   5  21  31   0     65.252    352.032    156.385    -46.281     20.320
2010   4   5  21  32   0     65.252    352.032    157.821    -46.469     19.014
2010   4   5  21  33   0     65.252    352.032    159.025    -46.574     17.935
2010   4   5  21  34   0     65.252    352.032    160.195    -46.779     16.667
2010   4   5  21  35   0     65.252    352.032    161.936    -47.140     14.710
2010   4   5  21  36   0     65.252    352.032    162.066    -47.649     13.405
2010   4   5  21  37   0     65.252    352.032    162.436    -48.286     11.669
2010   4   5  21  38   0     65.252    352.032    163.133    -48.962      9.639
2010   4   5  21  39   0     65.252    352.032    163.700    -49.550      7.814
2010   4   5  21  40   0     65.252    352.032    164.592    -50.005      6.009
2010   4   5  21  41   0     65.252    352.032    164.527    -50.605      4.365
2010   4   5  21  42   0     65.252    352.032    162.605    -50.733      4.811
2010   4   5  21  43   0     65.252    352.032    162.947    -50.845      4.471
2010   4   5  21  44   0     65.252    352.032    163.575    -50.941      3.581
2010   4   5  21  45   0     65.252    352.032    163.705    -50.949      3.101
2010   4   5  21  46   0     65.252    352.032    163.279    -50.778      3.029
2010   4   5  21  47   0     65.252    352.032    163.549    -50.375      3.505
2010   4   5  21  48   0     65.252    352.032    163.563    -50.029      3.986
2010   4   5  21  49   0     65.252    352.032    164.264    -49.426      4.552
2010   4   5  21  50   0     65.252    352.032    165.198    -48.120      6.223
2010   4   5  21  51   0     65.252    352.032    166.050    -46.667      7.956
2010   4   5  21  52   0     65.252    352.032    166.133    -45.164     10.109
2010   4   5  21  53   0     65.252    352.032    165.302    -44.630      8.629
2010   4   5  21  54   0     65.252    352.032    164.985    -44.534      7.107
2010   4   5  21  55   0     65.252    352.032    164.876    -44.458      5.914
2010   4   5  21  56   0     65.252    352.032    165.272    -41.257      7.896
2010   4   5  21  57   0     65.252    352.032    165.916    -39.782      6.608
2010   4   5  21  58   0     65.252    352.032    164.557    -37.939      7.292
2010   4   5  21  59   0     65.252    352.032    159.796    -35.747     12.308
2010   4   5  22   0   0     65.252    352.032    156.676    -34.135     16.437
2010   4   5  22   1   0     65.252    352.032    154.394    -32.718     14.460
2010   4   5  22   2   0     65.252    352.032    149.211    -26.235     13.542
2010   4   5  22   3   0     65.252    352.032    152.740    -27.512     15.194
2010   4   5  22   4   0     65.252    352.032    154.879    -27.156     15.927
2010   4   5  22   5   0     65.252    352.032    156.535    -26.360     16.135
2010   4   5  22   6   0     65.252    352.032    158.433    -25.434     16.231
2010   4   5  22   7   0     65.252    352.032    160.664    -24.729     13.023
2010   4   5  22   8   0     65.252    352.032    160.513    -24.165     11.393
2010   4   5  22   9   0     65.252    352.032    162.332    -23.525      8.455
2010   4   5  22  10   0     65.252    352.032    164.941    -23.003      5.897
2010   4   5  22  11   0     65.252    352.032    163.257    -22.463      6.142
2010   4   5  22  12   0     65.252    352.032    162.799    -22.499      5.857
2010   4   5  22  13   0     65.252    352.032    161.599    -22.756      6.082
2010   4   5  22  14   0     65.252    352.032    161.757    -23.271      5.829
2010   4   5  22  15   0     65.252    352.032    162.441    -23.495      5.688
2010   4   5  22  16   0     65.252    352.032    161.667    -23.599      6.013
2010   4   5  22  17   0     65.252    352.032    161.630    -23.758      6.163
2010   4   5  22  18   0     65.252    352.032    161.876    -23.957      6.395
2010   4   5  22  19   0     65.252    352.032    159.654    -23.963      7.281
2010   4   5  22  20   0     65.252    352.032    155.775    -23.692      8.189
2010   4   5  22  21   0     65.252    352.032    154.365    -23.690      8.703
2010   4   5  22  22   0     65.252    352.032    152.703    -23.701      9.462
2010   4   5  22  23   0     65.252    352.032    151.386    -23.730     10.129
2010   4   5  22  24   0     65.252    352.032    148.551    -23.626     11.297
2010   4   5  22  25   0     65.252    352.032    147.189    -23.574     11.778
2010   4   5  22  26   0     65.252    352.032    146.380    -23.481     11.722
2010   4   5  22  27   0     65.252    352.032    145.372    -23.402     11.915
2010   4   5  22  28   0     65.252    352.032    144.583    -23.278     11.701
2010   4   5  22  29   0     65.252    352.032    144.954    -23.254     11.285
2010   4   5  22  30   0     65.252    352.032    144.775    -23.182     11.050
2010   4   5  22  31   0     65.252    352.032    145.398    -23.231     10.155
2010   4   5  22  32   0     65.252    352.032    143.999    -23.030     10.520
2010   4   5  22  33   0     65.252    352.032    142.679    -22.861     10.757
2010   4   5  22  34   0     65.252    352.032    143.412    -22.934      9.540
2010   4   5  22  35   0     65.252    352.032    144.725    -23.231      7.556
2010   4   5  22  36   0     65.252    352.032    143.376    -23.142      7.702
2010   4   5  22  37   0     65.252    352.032    142.791    -23.135      7.307
2010   4   5  22  38   0     65.252    352.032    143.020    -23.487      5.939
2010   4   5  22  39   0     65.252    352.032    144.241    -24.190      3.716
2010   4   5  22  40   0     65.252    352.032    144.862    -25.025      2.108
2010   4   5  22  41   0     65.252    352.032    143.988    -24.730      0.854
2010   4   5  22  42   0     65.252    352.032    143.670    -24.321     -1.693
2010   4   5  22  43   0     65.252    352.032    143.323    -24.106     -3.404
2010   4   5  22  44   0     65.252    352.032    142.032    -23.930     -3.400
2010   4   5  22  45   0     65.252    352.032    141.056    -23.787     -3.567
2010   4   5  22  46   0     65.252    352.032    140.019    -23.670     -3.284
2010   4   5  22  47   0     65.252    352.032    139.769    -23.586     -4.280
2010   4   5  22  48   0     65.252    352.032    139.445    -23.526     -4.878
2010   4   5  22  49   0     65.252    352.032    138.631    -23.463     -4.292
2010   4   5  22  50   0     65.252    352.032    137.373    -23.411     -2.699
2010   4   5  22  51   0     65.252    352.032    136.968    -23.327     -3.256
2010   4   5  22  52   0     65.252    352.032    136.209    -23.239     -3.091
2010   4   5  22  53   0     65.252    352.032    134.896    -23.175     -1.544
2010   4   5  22  54   0     65.252    352.032    133.355    -23.096      0.120
2010   4   5  22  55   0     65.252    352.032    132.217    -23.142      1.763
2010   4   5  22  56   0     65.252    352.032    131.875    -23.129      1.739
2010   4   5  22  57   0     65.252    352.032    130.121    -22.386      2.763
2010   4   5  22  58   0     65.252    352.032    129.206    -21.889      2.972
2010   4   5  22  59   0     65.252    352.032    128.273    -21.430      3.260
2010   4   5  23   0   0     65.252    352.032    127.088    -20.912      3.853
2010   4   5  23   1   0     65.252    352.032    125.702    -20.491      4.558
2010   4   5  23   2   0     65.252    352.032    124.623    -19.906      5.347
2010   4   5  23   3   0     65.252    352.032    123.486    -19.882      5.431
2010   4   5  23   4   0     65.252    352.032    122.169    -19.924      5.605
2010   4   5  23   5   0     65.252    352.032    121.127    -20.124      5.551
2010   4   5  23   6   0     65.252    352.032    120.183    -20.289      5.588
2010   4   5  23   7   0     65.252    352.032    119.381    -20.175      5.622
2010   4   5  23   8   0     65.252    352.032    119.024    -20.344      5.295
2010   4   5  23   9   0     65.252    352.032    118.864    -20.263      4.826
2010   4   5  23  10   0     65.252    352.032    118.666    -20.031      4.362
2010   4   5  23  11   0     65.252    352.032    118.036    -19.669      4.326
2010   4   5  23  12   0     65.252    352.032    117.628    -19.607      4.012
2010   4   5  23  13   0     65.252    352.032    117.034    -19.536      3.865
2010   4   5  23  14   0     65.252    352.032    116.925    -19.469      3.274
2010   4   5  23  15   0     65.252    352.032    116.948    -19.552      2.496
2010   4   5  23  16   0     65.252    352.032    117.634    -19.617      1.022
2010   4   5  23  17   0     65.252    352.032    117.390    -19.832      0.400
2010   4   5  23  18   0     65.252    352.032    116.992    -19.562     -0.012
2010   4   5  23  19   0     65.252    352.032    116.764    -19.320     -0.584
2010   4   5  23  20   0     65.252    352.032    116.621    -19.101     -1.236
2010   4   5  23  21   0     65.252    352.032    116.477    -18.855     -1.824
2010   4   5  23  22   0     65.252    352.032    116.689    -19.236     -3.361
2010   4   5  23  23   0     65.252    352.032    116.257    -18.890     -3.625
2010   4   5  23  24   0     65.252    352.032    115.638    -18.941     -4.056
2010   4   5  23  25   0     65.252    352.032    114.960    -19.151     -4.443
2010   4   5  23  26   0     65.252    352.032    114.473    -19.410     -4.927
2010   4   5  23  27   0     65.252    352.032    114.093    -19.460     -5.465
2010   4   5  23  28   0     65.252    352.032    113.738    -19.509     -6.056
2010   4   5  23  29   0     65.252    352.032    113.307    -19.672     -6.480
2010   4   5  23  30   0     65.252    352.032    113.014    -19.706     -7.061
2010   4   5  23  31   0     65.252    352.032    112.542    -19.790     -7.347
2010   4   5  23  32   0     65.252    352.032    112.199    -19.761     -8.357
2010   4   5  23  33   0     65.252    352.032    111.399    -19.635     -8.718
2010   4   5  23  34   0     65.252    352.032    110.805    -19.563     -9.298
2010   4   5  23  35   0     65.252    352.032    110.616    -19.584    -10.290
2010   4   5  23  36   0     65.252    352.032    110.685    -19.659    -11.468
2010   4   5  23  37   0     65.252    352.032    110.610    -19.631    -11.450
2010   4   5  23  38   0     65.252    352.032    111.073    -19.849    -14.042
2010   4   5  23  39   0     65.252    352.032    111.057    -19.791    -15.843
2010   4   5  23  40   0     65.252    352.032    110.627    -19.754    -16.751
2010   4   5  23  41   0     65.252    352.032    109.949    -19.911    -17.461
2010   4   5  23  42   0     65.252    352.032    109.107    -19.854    -18.196
2010   4   5  23  43   0     65.252    352.032    108.151    -19.846    -19.313
2010   4   5  23  44   0     65.252    352.032    107.298    -19.814    -19.926
2010   4   5  23  45   0     65.252    352.032    106.542    -19.771    -20.458
2010   4   5  23  46   0     65.252    352.032    105.549    -19.782    -21.219
2010   4   5  23  47   0     65.252    352.032    104.811    -19.936    -23.103
2010   4   5  23  48   0     65.252    352.032    104.285    -20.070    -25.149
2010   4   5  23  49   0     65.252    352.032    103.669    -20.284    -28.015
2010   4   5  23  50   0     65.252    352.032    102.821    -20.437    -30.320
2010   4   5  23  51   0     65.252    352.032    101.776    -20.591    -32.138
2010   4   5  23  52   0     65.252    352.032    100.720    -20.673    -32.839
2010   4   5  23  53   0     65.252    352.032     99.841    -20.595    -32.369
2010   4   5  23  54   0     65.252    352.032     99.022    -20.528    -32.393
2010   4   5  23  55   0     65.252    352.032     98.346    -20.451    -33.387
2010   4   5  23  56   0     65.252    352.032     97.791    -20.322    -34.492
2010   4   5  23  57   0     65.252    352.032     97.527    -20.067    -34.667
2010   4   5  23  58   0     65.252    352.032     96.208    -20.256    -37.662
2010   4   5  23  59   0     65.252    352.032     94.684    -20.461    -40.534
2010   4   6   0   0   0     65.252    352.032     93.117    -20.757    -43.150
2010   4   6   0   1   0     65.252    352.032     92.399    -21.088    -45.284
2010   4   6   0   2   0     65.252    352.032     91.520    -21.190    -46.762
2010   4   6   0   3   0     65.252    352.032     90.678    -21.320    -48.220
2010   4   6   0   4   0     65.252    352.032     89.204    -21.100    -48.206
2010   4   6   0   5   0     65.252    352.032     87.555    -20.787    -47.826
2010   4   6   0   6   0     65.252    352.032     86.276    -20.629    -47.934
2010   4   6   0   7   0     65.252    352.032     85.336    -20.707    -48.546
2010   4   6   0   8   0     65.252    352.032     84.050    -20.566    -48.686
2010   4   6   0   9   0     65.252    352.032     83.067    -20.513    -48.718
2010   4   6   0  10   0     65.252    352.032     81.899    -20.514    -49.119
2010   4   6   0  11   0     65.252    352.032     80.974    -20.567    -49.459
2010   4   6   0  12   0     65.252    352.032     81.436    -21.163    -50.124
2010   4   6   0  13   0     65.252    352.032     79.156    -20.253    -49.168
2010   4   6   0  14   0     65.252    352.032     79.510    -19.809    -47.345
2010   4   6   0  15   0     65.252    352.032     79.156    -19.559    -47.057
2010   4   6   0  16   0     65.252    352.032     79.004    -19.314    -46.491
2010   4   6   0  17   0     65.252    352.032     79.070    -19.112    -45.009
