# model: Weimer_deltaB of April 6, 2012
# Station: YKC
# Station location (geographic): glon=      245.518 glat=      62.4830
# Station location (magnetic): mlon=      299.969 mlat=      68.8455
Year Month Day Hour Min Sec GeomagLat GeomagLon B_NorthGeomag B_EastGeomag B_DownGeomag
[year] [month] [day] [hour] [min] [s] [deg] [deg] [nT] [nT] [nT]
2010   4   4  19  31   0     68.845    299.969     12.184     -0.757    -12.783
2010   4   4  19  32   0     68.845    299.969     13.461     -0.133     -8.656
2010   4   4  19  33   0     68.845    299.969     13.116     -1.531     -9.533
2010   4   4  19  34   0     68.845    299.969     12.274     -2.863     -9.320
2010   4   4  19  35   0     68.845    299.969     12.805     -3.696    -10.840
2010   4   4  19  36   0     68.845    299.969     11.107     -3.892     -7.595
2010   4   4  19  37   0     68.845    299.969     11.688     -3.446     -5.354
2010   4   4  19  38   0     68.845    299.969      7.669     -2.692     -3.787
2010   4   4  19  39   0     68.845    299.969      8.517     -1.865     -1.058
2010   4   4  19  40   0     68.845    299.969      9.031     -1.012      0.142
2010   4   4  19  41   0     68.845    299.969      9.380     -0.574      0.476
2010   4   4  19  42   0     68.845    299.969     10.236     -1.451      0.464
2010   4   4  19  43   0     68.845    299.969     10.554     -1.377      0.594
2010   4   4  19  44   0     68.845    299.969     10.879     -1.663      0.577
2010   4   4  19  45   0     68.845    299.969     11.348     -1.658      0.859
2010   4   4  19  46   0     68.845    299.969     11.734     -1.385      1.141
2010   4   4  19  47   0     68.845    299.969     11.744      0.226      1.445
2010   4   4  19  48   0     68.845    299.969     12.369      1.729      1.468
2010   4   4  19  49   0     68.845    299.969     12.788      3.420      0.937
2010   4   4  19  50   0     68.845    299.969     13.348      3.417      0.428
2010   4   4  19  51   0     68.845    299.969     14.006      3.023     -0.363
2010   4   4  19  52   0     68.845    299.969     14.673      3.174     -1.604
2010   4   4  19  53   0     68.845    299.969     15.444      3.448     -2.646
2010   4   4  19  54   0     68.845    299.969     16.418      4.007     -4.074
2010   4   4  19  55   0     68.845    299.969     17.404      4.029     -4.775
2010   4   4  19  56   0     68.845    299.969     18.334      4.169     -5.288
2010   4   4  19  57   0     68.845    299.969     18.754      4.866     -5.442
2010   4   4  19  58   0     68.845    299.969     20.232      4.244     -6.162
2010   4   4  19  59   0     68.845    299.969     21.399      2.440     -5.393
2010   4   4  20   0   0     68.845    299.969     22.684      0.387     -5.839
2010   4   4  20   1   0     68.845    299.969     23.163     -0.893     -6.928
2010   4   4  20   2   0     68.845    299.969     22.537     -1.588     -7.305
2010   4   4  20   3   0     68.845    299.969     22.278     -2.411     -6.906
2010   4   4  20   4   0     68.845    299.969     22.239     -2.659     -6.405
2010   4   4  20   5   0     68.845    299.969     22.552     -3.131     -6.342
2010   4   4  20   6   0     68.845    299.969     24.205     -4.148     -7.330
2010   4   4  20   7   0     68.845    299.969     25.629     -4.459     -7.962
2010   4   4  20   8   0     68.845    299.969     26.070     -4.933     -8.006
2010   4   4  20   9   0     68.845    299.969     26.194     -5.092     -7.740
2010   4   4  20  10   0     68.845    299.969     26.407     -5.469     -7.705
2010   4   4  20  11   0     68.845    299.969     26.338     -5.886     -7.641
2010   4   4  20  12   0     68.845    299.969     25.275     -5.669     -7.203
2010   4   4  20  13   0     68.845    299.969     26.037     -6.278     -7.085
2010   4   4  20  14   0     68.845    299.969     26.547     -6.288     -6.806
2010   4   4  20  15   0     68.845    299.969     27.067     -6.064     -6.395
2010   4   4  20  16   0     68.845    299.969     27.627     -5.911     -6.206
2010   4   4  20  17   0     68.845    299.969     28.161     -6.005     -6.275
2010   4   4  20  18   0     68.845    299.969     28.364     -6.269     -6.323
2010   4   4  20  19   0     68.845    299.969     28.554     -6.223     -6.363
2010   4   4  20  20   0     68.845    299.969     27.570     -6.160     -5.907
2010   4   4  20  21   0     68.845    299.969     26.745     -6.712     -5.458
2010   4   4  20  22   0     68.845    299.969     25.659     -7.153     -5.038
2010   4   4  20  23   0     68.845    299.969     23.989     -7.234     -4.599
2010   4   4  20  24   0     68.845    299.969     23.088     -6.928     -4.176
2010   4   4  20  25   0     68.845    299.969     23.007     -7.097     -3.972
2010   4   4  20  26   0     68.845    299.969     23.578     -7.451     -4.042
2010   4   4  20  27   0     68.845    299.969     24.305     -7.753     -4.170
2010   4   4  20  28   0     68.845    299.969     24.956     -7.240     -3.454
2010   4   4  20  29   0     68.845    299.969     25.381     -6.944     -2.934
2010   4   4  20  30   0     68.845    299.969     25.834     -6.432     -2.204
2010   4   4  20  31   0     68.845    299.969     26.167     -5.934     -1.457
2010   4   4  20  32   0     68.845    299.969     24.861     -7.532     -7.483
2010   4   4  20  33   0     68.845    299.969     25.013     -7.587     -6.380
2010   4   4  20  34   0     68.845    299.969     25.214     -7.631     -6.042
2010   4   4  20  35   0     68.845    299.969     25.717     -7.252     -4.450
2010   4   4  20  36   0     68.845    299.969     26.224     -6.833     -2.970
2010   4   4  20  37   0     68.845    299.969     26.760     -6.599     -2.235
2010   4   4  20  38   0     68.845    299.969     27.523     -6.761     -3.355
2010   4   4  20  39   0     68.845    299.969     28.229     -6.693     -3.511
2010   4   4  20  40   0     68.845    299.969     30.173     -5.190     -4.156
2010   4   4  20  41   0     68.845    299.969     30.797     -4.982     -3.970
2010   4   4  20  42   0     68.845    299.969     31.030     -5.112     -3.564
2010   4   4  20  43   0     68.845    299.969     29.923     -5.821     -2.797
2010   4   4  20  44   0     68.845    299.969     29.177     -6.582     -2.254
2010   4   4  20  45   0     68.845    299.969     28.286     -7.585     -1.866
2010   4   4  20  46   0     68.845    299.969     27.511     -8.772     -1.889
2010   4   4  20  47   0     68.845    299.969     26.635    -10.045     -2.350
2010   4   4  20  48   0     68.845    299.969     26.213    -10.975     -3.298
2010   4   4  20  49   0     68.845    299.969     26.492    -11.348     -4.952
2010   4   4  20  50   0     68.845    299.969     26.178    -10.872     -5.718
2010   4   4  20  51   0     68.845    299.969     26.097    -10.256     -6.457
2010   4   4  20  52   0     68.845    299.969     26.054     -9.918     -8.707
2010   4   4  20  53   0     68.845    299.969     26.873     -8.841    -10.011
2010   4   4  20  54   0     68.845    299.969     25.183     -8.545    -11.209
2010   4   4  20  55   0     68.845    299.969     26.801     -8.017    -11.990
2010   4   4  20  56   0     68.845    299.969     24.585     -7.340    -11.838
2010   4   4  20  57   0     68.845    299.969     27.528     -6.721    -12.426
2010   4   4  20  58   0     68.845    299.969     29.371     -6.795    -12.614
2010   4   4  20  59   0     68.845    299.969     30.300     -6.223    -11.824
2010   4   4  21   0   0     68.845    299.969     28.693     -5.942    -11.018
2010   4   4  21   1   0     68.845    299.969     29.681     -5.999    -10.418
2010   4   4  21   2   0     68.845    299.969     29.138     -6.157     -9.753
2010   4   4  21   3   0     68.845    299.969     29.634     -6.367     -9.030
2010   4   4  21   4   0     68.845    299.969     31.664     -6.512     -8.312
2010   4   4  21   5   0     68.845    299.969     32.467     -6.833     -7.433
2010   4   4  21   6   0     68.845    299.969     33.429     -7.209     -6.531
2010   4   4  21   7   0     68.845    299.969     34.788     -7.424     -5.941
2010   4   4  21   8   0     68.845    299.969     36.498     -7.671     -5.331
2010   4   4  21   9   0     68.845    299.969     38.075     -8.009     -4.946
2010   4   4  21  10   0     68.845    299.969     39.220     -8.587     -4.274
2010   4   4  21  11   0     68.845    299.969     40.108     -9.002     -3.763
2010   4   4  21  12   0     68.845    299.969     40.649     -9.566     -3.491
2010   4   4  21  13   0     68.845    299.969     41.686     -9.726     -3.125
2010   4   4  21  14   0     68.845    299.969     42.936     -9.905     -2.873
2010   4   4  21  15   0     68.845    299.969     44.084    -10.140     -2.806
2010   4   4  21  16   0     68.845    299.969     45.281    -10.480     -2.949
2010   4   4  21  17   0     68.845    299.969     46.680    -10.892     -3.342
2010   4   4  21  18   0     68.845    299.969     48.513    -10.891     -3.876
2010   4   4  21  19   0     68.845    299.969     49.860    -10.845     -4.206
2010   4   4  21  20   0     68.845    299.969     50.195    -10.815     -4.173
2010   4   4  21  21   0     68.845    299.969     50.725    -10.738     -4.217
2010   4   4  21  22   0     68.845    299.969     51.366    -10.682     -4.274
2010   4   4  21  23   0     68.845    299.969     52.802    -10.598     -4.567
2010   4   4  21  24   0     68.845    299.969     53.345    -11.317     -5.126
2010   4   4  21  25   0     68.845    299.969     53.020    -10.961     -4.592
2010   4   4  21  26   0     68.845    299.969     52.961    -10.695     -4.272
2010   4   4  21  27   0     68.845    299.969     50.805    -10.874     -3.526
2010   4   4  21  28   0     68.845    299.969     48.574    -11.071     -2.777
2010   4   4  21  29   0     68.845    299.969     48.413    -10.807     -2.186
2010   4   4  21  30   0     68.845    299.969     45.752    -11.306     -2.103
2010   4   4  21  31   0     68.845    299.969     42.976    -10.881     -2.146
2010   4   4  21  32   0     68.845    299.969     41.654    -10.233     -2.778
2010   4   4  21  33   0     68.845    299.969     37.766    -10.420     -3.601
2010   4   4  21  34   0     68.845    299.969     35.626     -9.855     -4.875
2010   4   4  21  35   0     68.845    299.969     35.956     -9.563     -5.237
2010   4   4  21  36   0     68.845    299.969     35.387     -9.562     -6.209
2010   4   4  21  37   0     68.845    299.969     34.212     -9.565     -7.352
2010   4   4  21  38   0     68.845    299.969     33.096     -9.548     -8.637
2010   4   4  21  39   0     68.845    299.969     32.515     -9.772     -9.353
2010   4   4  21  40   0     68.845    299.969     32.422    -10.061     -9.325
2010   4   4  21  41   0     68.845    299.969     32.555    -10.358     -9.129
2010   4   4  21  42   0     68.845    299.969     32.870    -10.552     -8.792
2010   4   4  21  43   0     68.845    299.969     33.350    -10.863     -8.239
2010   4   4  21  44   0     68.845    299.969     33.583    -11.209     -7.745
2010   4   4  21  45   0     68.845    299.969     34.139    -11.365     -7.175
2010   4   4  21  46   0     68.845    299.969     34.998    -11.317     -6.456
2010   4   4  21  47   0     68.845    299.969     35.190    -11.448     -5.725
2010   4   4  21  48   0     68.845    299.969     35.097    -11.541     -5.231
2010   4   4  21  49   0     68.845    299.969     35.282    -11.715     -4.204
2010   4   4  21  50   0     68.845    299.969     35.321    -11.846     -3.572
2010   4   4  21  51   0     68.845    299.969     35.201    -11.970     -3.141
2010   4   4  21  52   0     68.845    299.969     34.837    -12.314     -2.745
2010   4   4  21  53   0     68.845    299.969     34.866    -12.242     -2.436
2010   4   4  21  54   0     68.845    299.969     34.714    -12.302     -2.329
2010   4   4  21  55   0     68.845    299.969     34.542    -12.518     -2.466
2010   4   4  21  56   0     68.845    299.969     34.511    -12.708     -2.733
2010   4   4  21  57   0     68.845    299.969     35.296    -13.288     -1.876
2010   4   4  21  58   0     68.845    299.969     36.155    -13.428     -0.289
2010   4   4  21  59   0     68.845    299.969     37.367    -13.052      0.735
2010   4   4  22   0   0     68.845    299.969     39.484    -12.047      1.906
2010   4   4  22   1   0     68.845    299.969     41.337    -11.114      1.902
2010   4   4  22   2   0     68.845    299.969     43.525    -10.156      1.540
2010   4   4  22   3   0     68.845    299.969     45.362     -9.130      2.162
2010   4   4  22   4   0     68.845    299.969     47.055     -8.007      2.569
2010   4   4  22   5   0     68.845    299.969     50.218     -5.802      2.309
2010   4   4  22   6   0     68.845    299.969     55.036     -4.231      1.777
2010   4   4  22   7   0     68.845    299.969     61.019     -4.034      2.005
2010   4   4  22   8   0     68.845    299.969     67.266     -2.069      1.472
2010   4   4  22   9   0     68.845    299.969     73.267      1.368      1.004
2010   4   4  22  10   0     68.845    299.969     78.900      3.224     -0.221
2010   4   4  22  11   0     68.845    299.969     85.965      7.897     -2.850
2010   4   4  22  12   0     68.845    299.969     88.320      9.333     -4.988
2010   4   4  22  13   0     68.845    299.969     90.476     10.352     -6.451
2010   4   4  22  14   0     68.845    299.969     93.335     11.757     -7.281
2010   4   4  22  15   0     68.845    299.969     89.681      9.459     -5.884
2010   4   4  22  16   0     68.845    299.969     88.773      8.989     -4.132
2010   4   4  22  17   0     68.845    299.969     89.494      9.338     -2.563
2010   4   4  22  18   0     68.845    299.969     89.138      8.943     -0.863
2010   4   4  22  19   0     68.845    299.969     90.594      9.956     -0.805
2010   4   4  22  20   0     68.845    299.969     91.684     10.263     -2.073
2010   4   4  22  21   0     68.845    299.969     91.760     10.413     -1.291
2010   4   4  22  22   0     68.845    299.969     92.510     10.964     -1.394
2010   4   4  22  23   0     68.845    299.969     92.582     10.815     -1.181
2010   4   4  22  24   0     68.845    299.969     92.385     10.643     -0.475
2010   4   4  22  25   0     68.845    299.969     91.697     10.067      0.556
2010   4   4  22  26   0     68.845    299.969     91.220      9.937      1.854
2010   4   4  22  27   0     68.845    299.969     90.049      9.154      3.373
2010   4   4  22  28   0     68.845    299.969     89.872      9.012      3.914
2010   4   4  22  29   0     68.845    299.969     89.560      8.703      4.545
2010   4   4  22  30   0     68.845    299.969     94.276     10.967      2.570
2010   4   4  22  31   0     68.845    299.969     96.059     11.803      1.582
2010   4   4  22  32   0     68.845    299.969    100.925     14.364     -0.061
2010   4   4  22  33   0     68.845    299.969    104.197     17.366     -1.385
2010   4   4  22  34   0     68.845    299.969    104.099     17.503     -0.572
2010   4   4  22  35   0     68.845    299.969    105.744     18.007     -0.046
2010   4   4  22  36   0     68.845    299.969    107.382     18.637     -0.889
2010   4   4  22  37   0     68.845    299.969    108.663     18.452     -1.963
2010   4   4  22  38   0     68.845    299.969    109.820     18.499     -2.985
2010   4   4  22  39   0     68.845    299.969    110.575     18.560     -3.603
2010   4   4  22  40   0     68.845    299.969    111.892     19.426     -5.681
2010   4   4  22  41   0     68.845    299.969    113.425     20.714     -8.616
2010   4   4  22  42   0     68.845    299.969    114.556     20.935     -9.836
2010   4   4  22  43   0     68.845    299.969    116.619     21.523    -12.384
2010   4   4  22  44   0     68.845    299.969    118.769     22.130    -14.797
2010   4   4  22  45   0     68.845    299.969    122.008     23.670    -17.354
2010   4   4  22  46   0     68.845    299.969    124.798     26.204    -20.854
2010   4   4  22  47   0     68.845    299.969    124.928     26.012    -20.783
2010   4   4  22  48   0     68.845    299.969    125.078     25.983    -20.732
2010   4   4  22  49   0     68.845    299.969    126.216     27.258    -23.335
2010   4   4  22  50   0     68.845    299.969    126.308     26.843    -23.216
2010   4   4  22  51   0     68.845    299.969    126.355     26.481    -23.150
2010   4   4  22  52   0     68.845    299.969    126.108     26.005    -22.254
2010   4   4  22  53   0     68.845    299.969    125.480     24.455    -20.858
2010   4   4  22  54   0     68.845    299.969    123.736     22.504    -18.984
2010   4   4  22  55   0     68.845    299.969    121.449     20.858    -16.194
2010   4   4  22  56   0     68.845    299.969    119.658     19.468    -12.750
2010   4   4  22  57   0     68.845    299.969    118.674     19.563    -12.035
2010   4   4  22  58   0     68.845    299.969    117.117     19.255     -9.803
2010   4   4  22  59   0     68.845    299.969    115.835     19.378     -7.762
2010   4   4  23   0   0     68.845    299.969    114.314     18.780     -6.227
2010   4   4  23   1   0     68.845    299.969    112.893     18.355     -7.778
2010   4   4  23   2   0     68.845    299.969    114.695     18.085    -11.728
2010   4   4  23   3   0     68.845    299.969    116.108     18.114    -15.264
2010   4   4  23   4   0     68.845    299.969    116.310     17.983    -15.917
2010   4   4  23   5   0     68.845    299.969    118.507     18.946    -19.549
2010   4   4  23   6   0     68.845    299.969    120.654     19.893    -23.234
2010   4   4  23   7   0     68.845    299.969    123.033     21.166    -26.951
2010   4   4  23   8   0     68.845    299.969    124.871     23.699    -29.521
2010   4   4  23   9   0     68.845    299.969    126.583     24.621    -32.771
2010   4   4  23  10   0     68.845    299.969    129.329     25.314    -37.487
2010   4   4  23  11   0     68.845    299.969    131.994     25.972    -45.747
2010   4   4  23  12   0     68.845    299.969    134.282     26.545    -52.605
2010   4   4  23  13   0     68.845    299.969    134.141     26.301    -50.845
2010   4   4  23  14   0     68.845    299.969    136.098     26.727    -55.619
2010   4   4  23  15   0     68.845    299.969    137.199     28.059    -61.225
2010   4   4  23  16   0     68.845    299.969    137.671     29.252    -63.311
2010   4   4  23  17   0     68.845    299.969    137.614     29.951    -62.195
2010   4   4  23  18   0     68.845    299.969    137.455     30.190    -61.010
2010   4   4  23  19   0     68.845    299.969    137.573     30.190    -61.689
2010   4   4  23  20   0     68.845    299.969    137.350     29.947    -59.467
2010   4   4  23  21   0     68.845    299.969    137.141     29.445    -56.375
2010   4   4  23  22   0     68.845    299.969    136.799     28.746    -53.944
2010   4   4  23  23   0     68.845    299.969    136.378     27.957    -51.692
2010   4   4  23  24   0     68.845    299.969    136.170     27.467    -50.447
2010   4   4  23  25   0     68.845    299.969    135.902     26.936    -49.008
2010   4   4  23  26   0     68.845    299.969    135.265     26.044    -45.947
2010   4   4  23  27   0     68.845    299.969    134.883     25.451    -44.278
2010   4   4  23  28   0     68.845    299.969    136.371     26.791    -50.021
2010   4   4  23  29   0     68.845    299.969    136.696     26.855    -51.526
2010   4   4  23  30   0     68.845    299.969    136.659     26.645    -50.797
2010   4   4  23  31   0     68.845    299.969    137.057     26.876    -52.081
2010   4   4  23  32   0     68.845    299.969    137.264     26.907    -52.681
2010   4   4  23  33   0     68.845    299.969    137.235     26.686    -52.232
2010   4   4  23  34   0     68.845    299.969    136.781     26.003    -50.156
2010   4   4  23  35   0     68.845    299.969    136.539     25.524    -49.206
2010   4   4  23  36   0     68.845    299.969    136.632     25.363    -49.715
2010   4   4  23  37   0     68.845    299.969    136.727     25.205    -50.231
2010   4   4  23  38   0     68.845    299.969    137.269     25.407    -53.021
2010   4   4  23  39   0     68.845    299.969    137.254     25.057    -54.689
2010   4   4  23  40   0     68.845    299.969    137.557     24.573    -56.019
2010   4   4  23  41   0     68.845    299.969    138.326     23.879    -57.214
2010   4   4  23  42   0     68.845    299.969    139.026     22.536    -57.158
2010   4   4  23  43   0     68.845    299.969    138.818     22.085    -55.331
2010   4   4  23  44   0     68.845    299.969    137.795     23.275    -51.506
2010   4   4  23  45   0     68.845    299.969    136.115     23.878    -48.982
2010   4   4  23  46   0     68.845    299.969    135.046     23.605    -49.047
2010   4   4  23  47   0     68.845    299.969    135.154     22.617    -49.213
2010   4   4  23  48   0     68.845    299.969    134.695     21.270    -48.356
2010   4   4  23  49   0     68.845    299.969    132.254     19.657    -46.616
2010   4   4  23  50   0     68.845    299.969    131.143     18.106    -48.340
2010   4   4  23  51   0     68.845    299.969    129.237     16.059    -51.618
2010   4   4  23  52   0     68.845    299.969    128.588     14.930    -52.753
2010   4   4  23  53   0     68.845    299.969    128.101     13.706    -50.257
2010   4   4  23  54   0     68.845    299.969    126.768     13.584    -46.912
2010   4   4  23  55   0     68.845    299.969    126.209     13.526    -45.696
2010   4   4  23  56   0     68.845    299.969    126.371     13.488    -45.995
2010   4   4  23  57   0     68.845    299.969    127.090     13.601    -47.080
2010   4   4  23  58   0     68.845    299.969    127.463     13.605    -47.849
2010   4   4  23  59   0     68.845    299.969    125.220     13.260    -44.048
2010   4   5   0   0   0     68.845    299.969    122.714     11.425    -40.294
2010   4   5   0   1   0     68.845    299.969    117.404      9.716    -35.904
2010   4   5   0   2   0     68.845    299.969    115.481      9.223    -33.525
2010   4   5   0   3   0     68.845    299.969    113.956      8.807    -31.874
2010   4   5   0   4   0     68.845    299.969    114.540      8.800    -32.748
2010   4   5   0   5   0     68.845    299.969    113.338      8.504    -31.482
2010   4   5   0   6   0     68.845    299.969    113.015      8.692    -30.566
2010   4   5   0   7   0     68.845    299.969    110.918      8.599    -27.857
2010   4   5   0   8   0     68.845    299.969    111.221      8.744    -27.923
2010   4   5   0   9   0     68.845    299.969    110.258      7.774    -28.815
2010   4   5   0  10   0     68.845    299.969    109.479      6.645    -29.563
2010   4   5   0  11   0     68.845    299.969    108.155      5.690    -29.077
2010   4   5   0  12   0     68.845    299.969    106.508      4.619    -28.324
2010   4   5   0  13   0     68.845    299.969    106.092      4.380    -28.075
2010   4   5   0  14   0     68.845    299.969    106.291      4.395    -28.449
2010   4   5   0  15   0     68.845    299.969    111.149      5.633    -33.814
2010   4   5   0  16   0     68.845    299.969    119.802      7.041    -44.311
2010   4   5   0  17   0     68.845    299.969    122.900      7.660    -46.463
2010   4   5   0  18   0     68.845    299.969    123.508      7.557    -47.271
2010   4   5   0  19   0     68.845    299.969    123.462      7.148    -47.821
2010   4   5   0  20   0     68.845    299.969    120.190      6.391    -46.098
2010   4   5   0  21   0     68.845    299.969    117.780      4.892    -45.490
2010   4   5   0  22   0     68.845    299.969    114.639      3.742    -43.762
2010   4   5   0  23   0     68.845    299.969    110.279      2.646    -39.465
2010   4   5   0  24   0     68.845    299.969    108.234      2.241    -36.788
2010   4   5   0  25   0     68.845    299.969    104.435      2.252    -30.333
2010   4   5   0  26   0     68.845    299.969    101.820      1.822    -27.101
2010   4   5   0  27   0     68.845    299.969    100.909      2.000    -24.326
2010   4   5   0  28   0     68.845    299.969     96.536      1.439    -20.639
2010   4   5   0  29   0     68.845    299.969     94.598      0.687    -19.656
2010   4   5   0  30   0     68.845    299.969     94.023      0.653    -19.169
2010   4   5   0  31   0     68.845    299.969     90.930     -0.031    -16.739
2010   4   5   0  32   0     68.845    299.969     87.759     -0.786    -14.315
2010   4   5   0  33   0     68.845    299.969     87.003     -0.887    -13.465
2010   4   5   0  34   0     68.845    299.969     86.006     -0.576    -13.399
2010   4   5   0  35   0     68.845    299.969     87.875      0.101    -14.764
2010   4   5   0  36   0     68.845    299.969     87.781      1.876    -16.903
2010   4   5   0  37   0     68.845    299.969     91.032      2.825    -18.815
2010   4   5   0  38   0     68.845    299.969     93.202      3.617    -19.983
2010   4   5   0  39   0     68.845    299.969     93.737      4.312    -20.355
2010   4   5   0  40   0     68.845    299.969     94.587      4.338    -20.654
2010   4   5   0  41   0     68.845    299.969     96.227      4.410    -21.023
2010   4   5   0  42   0     68.845    299.969     96.948      4.591    -21.151
2010   4   5   0  43   0     68.845    299.969     97.148      4.531    -21.318
2010   4   5   0  44   0     68.845    299.969     95.629      4.507    -21.301
2010   4   5   0  45   0     68.845    299.969     91.271      4.102    -20.591
2010   4   5   0  46   0     68.845    299.969     87.883      3.420    -19.209
2010   4   5   0  47   0     68.845    299.969     85.378      2.854    -17.712
2010   4   5   0  48   0     68.845    299.969     80.855      2.023    -14.446
2010   4   5   0  49   0     68.845    299.969     77.005      0.335    -11.575
2010   4   5   0  50   0     68.845    299.969     75.011     -0.427    -10.157
2010   4   5   0  51   0     68.845    299.969     74.211     -1.881     -8.325
2010   4   5   0  52   0     68.845    299.969     72.130     -3.201     -6.028
2010   4   5   0  53   0     68.845    299.969     71.880     -3.700     -5.970
2010   4   5   0  54   0     68.845    299.969     72.150     -3.124     -6.415
2010   4   5   0  55   0     68.845    299.969     70.523     -3.538     -4.995
2010   4   5   0  56   0     68.845    299.969     68.409     -3.668     -3.983
2010   4   5   0  57   0     68.845    299.969     66.636     -3.552     -4.136
2010   4   5   0  58   0     68.845    299.969     65.241     -3.609     -4.768
2010   4   5   0  59   0     68.845    299.969     64.435     -3.668     -6.098
2010   4   5   1   0   0     68.845    299.969     63.828     -3.669     -7.864
2010   4   5   1   1   0     68.845    299.969     63.940     -3.066    -11.062
2010   4   5   1   2   0     68.845    299.969     64.218     -3.099    -12.236
2010   4   5   1   3   0     68.845    299.969     64.282     -3.581    -13.584
2010   4   5   1   4   0     68.845    299.969     63.600     -3.985    -14.242
2010   4   5   1   5   0     68.845    299.969     61.070     -3.578    -14.384
2010   4   5   1   6   0     68.845    299.969     59.506     -4.989    -14.921
2010   4   5   1   7   0     68.845    299.969     58.609     -6.455    -13.758
2010   4   5   1   8   0     68.845    299.969     59.469     -5.861    -13.959
2010   4   5   1   9   0     68.845    299.969     57.217     -4.891    -16.262
2010   4   5   1  10   0     68.845    299.969     56.937     -5.750    -17.374
2010   4   5   1  11   0     68.845    299.969     56.784     -5.064    -16.279
2010   4   5   1  12   0     68.845    299.969     56.417     -5.112    -16.541
2010   4   5   1  13   0     68.845    299.969     56.947     -5.005    -16.623
2010   4   5   1  14   0     68.845    299.969     57.935     -5.511    -16.084
2010   4   5   1  15   0     68.845    299.969     58.047     -5.435    -16.540
2010   4   5   1  16   0     68.845    299.969     58.124     -5.420    -16.546
2010   4   5   1  17   0     68.845    299.969     58.794     -5.449    -16.165
2010   4   5   1  18   0     68.845    299.969     58.683     -5.243    -16.816
2010   4   5   1  19   0     68.845    299.969     59.184     -5.368    -15.995
2010   4   5   1  20   0     68.845    299.969     59.632     -5.547    -13.733
2010   4   5   1  21   0     68.845    299.969     60.896     -5.399    -12.735
2010   4   5   1  22   0     68.845    299.969     58.061     -5.547    -12.266
2010   4   5   1  23   0     68.845    299.969     61.373     -3.825    -13.294
2010   4   5   1  24   0     68.845    299.969     63.595     -2.250    -12.515
2010   4   5   1  25   0     68.845    299.969     62.448     -1.939    -11.811
2010   4   5   1  26   0     68.845    299.969     63.459     -1.806    -11.689
2010   4   5   1  27   0     68.845    299.969     62.316     -2.546    -11.288
2010   4   5   1  28   0     68.845    299.969     63.029     -2.357    -10.941
2010   4   5   1  29   0     68.845    299.969     62.987     -1.996    -10.226
2010   4   5   1  30   0     68.845    299.969     62.184     -1.567     -9.613
2010   4   5   1  31   0     68.845    299.969     61.558     -1.945     -8.017
2010   4   5   1  32   0     68.845    299.969     61.808     -1.992     -7.030
2010   4   5   1  33   0     68.845    299.969     61.985     -1.999     -5.705
2010   4   5   1  34   0     68.845    299.969     61.751     -2.233     -5.358
2010   4   5   1  35   0     68.845    299.969     61.625     -2.237     -4.232
2010   4   5   1  36   0     68.845    299.969     62.384     -1.520     -3.874
2010   4   5   1  37   0     68.845    299.969     63.998     -1.060     -5.120
2010   4   5   1  38   0     68.845    299.969     64.533     -1.065     -5.468
2010   4   5   1  39   0     68.845    299.969     66.694     -0.665     -7.411
2010   4   5   1  40   0     68.845    299.969     69.827     -0.269    -10.444
2010   4   5   1  41   0     68.845    299.969     73.185     -0.039    -13.642
2010   4   5   1  42   0     68.845    299.969     76.980     -0.389    -15.910
2010   4   5   1  43   0     68.845    299.969     81.051     -0.024    -19.944
2010   4   5   1  44   0     68.845    299.969     84.610     -0.153    -22.934
2010   4   5   1  45   0     68.845    299.969     84.410     -0.801    -24.380
2010   4   5   1  46   0     68.845    299.969     82.635     -0.158    -21.183
2010   4   5   1  47   0     68.845    299.969     79.722     -0.495    -18.782
2010   4   5   1  48   0     68.845    299.969     75.621     -0.856    -15.522
2010   4   5   1  49   0     68.845    299.969     73.084     -0.807    -13.798
2010   4   5   1  50   0     68.845    299.969     70.889     -0.513    -12.227
2010   4   5   1  51   0     68.845    299.969     68.805     -0.440    -11.578
2010   4   5   1  52   0     68.845    299.969     67.766     -0.779    -11.393
2010   4   5   1  53   0     68.845    299.969     67.675     -0.388    -13.378
2010   4   5   1  54   0     68.845    299.969     67.534     -1.152    -15.451
2010   4   5   1  55   0     68.845    299.969     67.966     -0.992    -17.373
2010   4   5   1  56   0     68.845    299.969     60.920     -4.057    -16.325
2010   4   5   1  57   0     68.845    299.969     64.282     -4.226    -16.710
2010   4   5   1  58   0     68.845    299.969     62.195     -4.257    -19.406
2010   4   5   1  59   0     68.845    299.969     60.412     -4.036    -20.981
2010   4   5   2   0   0     68.845    299.969     59.352     -4.547    -21.054
2010   4   5   2   1   0     68.845    299.969     60.445     -4.776    -21.220
2010   4   5   2   2   0     68.845    299.969     59.727     -4.611    -21.047
2010   4   5   2   3   0     68.845    299.969     60.013     -4.518    -18.940
2010   4   5   2   4   0     68.845    299.969     60.696     -4.614    -16.980
2010   4   5   2   5   0     68.845    299.969     59.507     -5.035    -16.523
2010   4   5   2   6   0     68.845    299.969     58.582     -5.036    -16.436
2010   4   5   2   7   0     68.845    299.969     57.366     -5.191    -16.760
2010   4   5   2   8   0     68.845    299.969     57.598     -5.263    -16.846
2010   4   5   2   9   0     68.845    299.969     56.969     -5.262    -16.890
2010   4   5   2  10   0     68.845    299.969     57.181     -5.262    -16.970
2010   4   5   2  11   0     68.845    299.969     57.478     -5.284    -17.083
2010   4   5   2  12   0     68.845    299.969     58.522     -5.263    -17.288
2010   4   5   2  13   0     68.845    299.969     60.310     -4.797    -17.796
2010   4   5   2  14   0     68.845    299.969     59.009     -5.097    -18.026
2010   4   5   2  15   0     68.845    299.969     57.948     -4.355    -20.669
2010   4   5   2  16   0     68.845    299.969     57.493     -3.610    -21.879
2010   4   5   2  17   0     68.845    299.969     57.372     -4.716    -22.081
2010   4   5   2  18   0     68.845    299.969     56.372     -4.754    -20.529
2010   4   5   2  19   0     68.845    299.969     56.032     -5.793    -20.921
2010   4   5   2  20   0     68.845    299.969     56.171     -5.114    -20.638
2010   4   5   2  21   0     68.845    299.969     57.375     -4.856    -22.375
2010   4   5   2  22   0     68.845    299.969     57.544     -4.168    -21.462
2010   4   5   2  23   0     68.845    299.969     59.282     -4.882    -18.172
2010   4   5   2  24   0     68.845    299.969     62.876     -2.003    -20.650
2010   4   5   2  25   0     68.845    299.969     62.988     -1.198    -19.343
2010   4   5   2  26   0     68.845    299.969     64.253     -0.391    -16.066
2010   4   5   2  27   0     68.845    299.969     64.925      0.309    -15.296
2010   4   5   2  28   0     68.845    299.969     65.047      0.045    -15.115
2010   4   5   2  29   0     68.845    299.969     66.699      0.195    -15.839
2010   4   5   2  30   0     68.845    299.969     70.735      0.108    -20.134
2010   4   5   2  31   0     68.845    299.969     76.616     -0.890    -27.677
2010   4   5   2  32   0     68.845    299.969     80.380     -2.090    -34.546
2010   4   5   2  33   0     68.845    299.969     83.628     -4.969    -44.290
2010   4   5   2  34   0     68.845    299.969     86.166     -6.522    -53.209
2010   4   5   2  35   0     68.845    299.969     87.787     -6.975    -58.089
2010   4   5   2  36   0     68.845    299.969     87.718     -7.294    -59.124
2010   4   5   2  37   0     68.845    299.969     87.930     -7.443    -60.920
2010   4   5   2  38   0     68.845    299.969     86.683     -6.846    -59.194
2010   4   5   2  39   0     68.845    299.969     85.657     -6.929    -57.551
2010   4   5   2  40   0     68.845    299.969     85.109     -6.691    -55.010
2010   4   5   2  41   0     68.845    299.969     84.814     -5.482    -50.834
2010   4   5   2  42   0     68.845    299.969     83.873     -4.733    -48.707
2010   4   5   2  43   0     68.845    299.969     84.245     -6.538    -53.446
2010   4   5   2  44   0     68.845    299.969     84.573     -7.196    -59.485
2010   4   5   2  45   0     68.845    299.969     85.249     -8.369    -62.454
2010   4   5   2  46   0     68.845    299.969     85.717     -9.993    -66.408
2010   4   5   2  47   0     68.845    299.969     86.643    -11.971    -69.811
2010   4   5   2  48   0     68.845    299.969     88.267    -12.440    -71.305
2010   4   5   2  49   0     68.845    299.969     88.284    -13.311    -71.244
2010   4   5   2  50   0     68.845    299.969     86.751    -15.349    -72.886
2010   4   5   2  51   0     68.845    299.969     86.004    -17.664    -78.285
2010   4   5   2  52   0     68.845    299.969     83.593    -22.314    -85.053
2010   4   5   2  53   0     68.845    299.969     83.825    -24.520    -90.788
2010   4   5   2  54   0     68.845    299.969     83.416    -26.650    -95.846
2010   4   5   2  55   0     68.845    299.969     82.988    -27.899   -100.763
2010   4   5   2  56   0     68.845    299.969     82.551    -28.536   -107.761
2010   4   5   2  57   0     68.845    299.969     81.511    -28.715   -102.893
2010   4   5   2  58   0     68.845    299.969     80.087    -27.857    -96.518
2010   4   5   2  59   0     68.845    299.969     78.807    -25.373    -89.418
2010   4   5   3   0   0     68.845    299.969     79.712    -21.720    -82.091
2010   4   5   3   1   0     68.845    299.969     80.807    -17.844    -74.068
2010   4   5   3   2   0     68.845    299.969     80.177    -17.115    -71.395
2010   4   5   3   3   0     68.845    299.969     80.811    -14.726    -67.609
2010   4   5   3   4   0     68.845    299.969     78.319    -13.864    -63.540
2010   4   5   3   5   0     68.845    299.969     75.881    -12.707    -58.182
2010   4   5   3   6   0     68.845    299.969     74.609     -9.664    -50.834
2010   4   5   3   7   0     68.845    299.969     73.178     -7.618    -45.156
2010   4   5   3   8   0     68.845    299.969     72.135     -6.542    -41.653
2010   4   5   3   9   0     68.845    299.969     70.523     -4.450    -34.865
2010   4   5   3  10   0     68.845    299.969     69.804     -3.274    -31.087
2010   4   5   3  11   0     68.845    299.969     69.299     -2.568    -29.103
2010   4   5   3  12   0     68.845    299.969     68.728     -2.892    -29.823
2010   4   5   3  13   0     68.845    299.969     68.338     -3.127    -30.555
2010   4   5   3  14   0     68.845    299.969     67.983     -3.362    -31.617
2010   4   5   3  15   0     68.845    299.969     67.534     -3.614    -33.155
2010   4   5   3  16   0     68.845    299.969     67.615     -4.324    -35.898
2010   4   5   3  17   0     68.845    299.969     68.033     -5.379    -39.118
2010   4   5   3  18   0     68.845    299.969     68.068     -6.435    -41.530
2010   4   5   3  19   0     68.845    299.969     68.061     -7.764    -44.736
2010   4   5   3  20   0     68.845    299.969     67.667     -6.796    -42.531
2010   4   5   3  21   0     68.845    299.969     67.087     -5.800    -40.143
2010   4   5   3  22   0     68.845    299.969     65.776     -3.105    -33.678
2010   4   5   3  23   0     68.845    299.969     62.545     -1.549    -28.126
2010   4   5   3  24   0     68.845    299.969     61.992     -1.502    -27.849
2010   4   5   3  25   0     68.845    299.969     60.010     -0.923    -25.755
2010   4   5   3  26   0     68.845    299.969     59.610     -0.746    -25.123
2010   4   5   3  27   0     68.845    299.969     60.053     -1.057    -26.143
2010   4   5   3  28   0     68.845    299.969     61.179     -1.259    -27.164
2010   4   5   3  29   0     68.845    299.969     61.256     -1.025    -27.256
2010   4   5   3  30   0     68.845    299.969     62.260     -1.414    -28.897
2010   4   5   3  31   0     68.845    299.969     63.373     -1.918    -28.211
2010   4   5   3  32   0     68.845    299.969     63.749     -1.231    -26.867
2010   4   5   3  33   0     68.845    299.969     64.193     -1.530    -27.755
2010   4   5   3  34   0     68.845    299.969     65.366     -1.768    -28.523
2010   4   5   3  35   0     68.845    299.969     66.710     -3.962    -33.401
2010   4   5   3  36   0     68.845    299.969     67.896     -6.574    -39.246
2010   4   5   3  37   0     68.845    299.969     67.375    -11.182    -46.380
2010   4   5   3  38   0     68.845    299.969     67.000    -15.184    -54.533
2010   4   5   3  39   0     68.845    299.969     64.834    -19.486    -60.649
2010   4   5   3  40   0     68.845    299.969     66.593    -23.373    -68.368
2010   4   5   3  41   0     68.845    299.969     65.521    -24.893    -70.848
2010   4   5   3  42   0     68.845    299.969     65.546    -23.965    -70.255
2010   4   5   3  43   0     68.845    299.969     64.200    -25.170    -71.632
2010   4   5   3  44   0     68.845    299.969     62.387    -26.655    -74.298
2010   4   5   3  45   0     68.845    299.969     60.852    -28.068    -75.247
2010   4   5   3  46   0     68.845    299.969     61.372    -26.561    -71.178
2010   4   5   3  47   0     68.845    299.969     60.655    -26.285    -70.276
2010   4   5   3  48   0     68.845    299.969     59.544    -23.846    -65.157
2010   4   5   3  49   0     68.845    299.969     59.752    -20.522    -60.088
2010   4   5   3  50   0     68.845    299.969     61.773    -16.189    -53.734
2010   4   5   3  51   0     68.845    299.969     62.941    -13.325    -48.899
2010   4   5   3  52   0     68.845    299.969     63.274    -10.813    -44.190
2010   4   5   3  53   0     68.845    299.969     63.432     -8.814    -40.699
2010   4   5   3  54   0     68.845    299.969     63.239     -6.949    -37.336
2010   4   5   3  55   0     68.845    299.969     63.441     -5.152    -34.648
2010   4   5   3  56   0     68.845    299.969     63.799     -3.267    -32.936
2010   4   5   3  57   0     68.845    299.969     63.923     -1.698    -31.817
2010   4   5   3  58   0     68.845    299.969     64.338     -0.679    -30.892
2010   4   5   3  59   0     68.845    299.969     60.891     -1.098    -27.992
2010   4   5   4   0   0     68.845    299.969     60.743     -1.558    -26.656
2010   4   5   4   1   0     68.845    299.969     60.758     -1.592    -26.544
2010   4   5   4   2   0     68.845    299.969     58.653     -1.817    -26.177
2010   4   5   4   3   0     68.845    299.969     59.391     -1.402    -27.951
2010   4   5   4   4   0     68.845    299.969     61.952     -0.706    -30.329
2010   4   5   4   5   0     68.845    299.969     58.335     -2.919    -29.058
2010   4   5   4   6   0     68.845    299.969     58.322     -3.269    -29.376
2010   4   5   4   7   0     68.845    299.969     59.227     -3.401    -30.719
2010   4   5   4   8   0     68.845    299.969     59.271     -3.189    -31.124
2010   4   5   4   9   0     68.845    299.969     58.101     -2.983    -31.390
2010   4   5   4  10   0     68.845    299.969     55.299     -5.027    -33.741
2010   4   5   4  11   0     68.845    299.969     52.889     -8.122    -38.365
2010   4   5   4  12   0     68.845    299.969     51.197    -12.515    -43.859
2010   4   5   4  13   0     68.845    299.969     48.571    -18.154    -52.557
2010   4   5   4  14   0     68.845    299.969     43.767    -24.008    -58.131
2010   4   5   4  15   0     68.845    299.969     38.341    -30.941    -65.056
2010   4   5   4  16   0     68.845    299.969     35.035    -37.511    -72.056
2010   4   5   4  17   0     68.845    299.969     31.998    -39.067    -72.684
2010   4   5   4  18   0     68.845    299.969     29.178    -40.462    -73.185
2010   4   5   4  19   0     68.845    299.969     30.634    -35.508    -68.241
2010   4   5   4  20   0     68.845    299.969     32.349    -33.132    -66.110
2010   4   5   4  21   0     68.845    299.969     29.981    -34.832    -67.204
2010   4   5   4  22   0     68.845    299.969     26.842    -36.923    -68.690
2010   4   5   4  23   0     68.845    299.969     20.445    -42.497    -71.937
2010   4   5   4  24   0     68.845    299.969     17.714    -44.727    -72.668
2010   4   5   4  25   0     68.845    299.969     16.815    -45.568    -73.274
2010   4   5   4  26   0     68.845    299.969     18.819    -40.653    -70.808
2010   4   5   4  27   0     68.845    299.969     17.667    -38.542    -68.870
2010   4   5   4  28   0     68.845    299.969     17.468    -37.154    -67.442
2010   4   5   4  29   0     68.845    299.969     15.792    -37.899    -67.540
2010   4   5   4  30   0     68.845    299.969     15.221    -37.951    -67.147
2010   4   5   4  31   0     68.845    299.969     14.051    -38.588    -67.093
2010   4   5   4  32   0     68.845    299.969     16.537    -35.984    -65.826
2010   4   5   4  33   0     68.845    299.969     19.633    -33.541    -63.758
2010   4   5   4  34   0     68.845    299.969     20.147    -33.330    -63.250
2010   4   5   4  35   0     68.845    299.969     21.608    -31.861    -61.153
2010   4   5   4  36   0     68.845    299.969     22.770    -30.592    -58.295
2010   4   5   4  37   0     68.845    299.969     25.219    -28.745    -56.033
2010   4   5   4  38   0     68.845    299.969     27.403    -26.979    -54.021
2010   4   5   4  39   0     68.845    299.969     29.559    -24.943    -51.838
2010   4   5   4  40   0     68.845    299.969     32.074    -23.213    -50.663
2010   4   5   4  41   0     68.845    299.969     34.397    -23.366    -51.015
2010   4   5   4  42   0     68.845    299.969     38.187    -21.035    -48.873
2010   4   5   4  43   0     68.845    299.969     39.057    -20.819    -49.387
2010   4   5   4  44   0     68.845    299.969     39.760    -21.238    -50.186
2010   4   5   4  45   0     68.845    299.969     41.741    -19.867    -49.825
2010   4   5   4  46   0     68.845    299.969     42.467    -19.165    -49.451
2010   4   5   4  47   0     68.845    299.969     42.818    -19.419    -50.229
2010   4   5   4  48   0     68.845    299.969     42.571    -19.492    -50.247
2010   4   5   4  49   0     68.845    299.969     41.236    -20.649    -51.065
2010   4   5   4  50   0     68.845    299.969     39.064    -22.288    -52.564
2010   4   5   4  51   0     68.845    299.969     37.476    -23.288    -53.706
2010   4   5   4  52   0     68.845    299.969     36.458    -23.914    -53.177
2010   4   5   4  53   0     68.845    299.969     35.779    -24.166    -53.003
2010   4   5   4  54   0     68.845    299.969     34.500    -24.914    -53.139
2010   4   5   4  55   0     68.845    299.969     33.487    -25.450    -53.018
2010   4   5   4  56   0     68.845    299.969     31.590    -26.726    -52.960
2010   4   5   4  57   0     68.845    299.969     26.514    -30.129    -55.957
2010   4   5   4  58   0     68.845    299.969     23.656    -31.908    -56.816
2010   4   5   4  59   0     68.845    299.969     20.049    -34.188    -57.760
2010   4   5   5   0   0     68.845    299.969     14.485    -37.653    -59.499
2010   4   5   5   1   0     68.845    299.969     10.357    -40.025    -60.550
2010   4   5   5   2   0     68.845    299.969      6.565    -42.382    -60.474
2010   4   5   5   3   0     68.845    299.969      1.498    -44.914    -62.434
2010   4   5   5   4   0     68.845    299.969     -1.925    -46.932    -62.010
2010   4   5   5   5   0     68.845    299.969     -4.587    -48.572    -61.100
2010   4   5   5   6   0     68.845    299.969     -8.643    -50.644    -61.466
2010   4   5   5   7   0     68.845    299.969    -12.757    -52.608    -61.994
2010   4   5   5   8   0     68.845    299.969    -16.576    -53.927    -63.680
2010   4   5   5   9   0     68.845    299.969    -18.579    -56.074    -64.035
2010   4   5   5  10   0     68.845    299.969    -20.162    -57.663    -63.680
2010   4   5   5  11   0     68.845    299.969    -21.223    -58.849    -63.152
2010   4   5   5  12   0     68.845    299.969    -22.476    -59.958    -62.543
2010   4   5   5  13   0     68.845    299.969    -22.624    -60.103    -61.855
2010   4   5   5  14   0     68.845    299.969    -20.237    -58.156    -61.105
2010   4   5   5  15   0     68.845    299.969    -14.938    -54.616    -60.077
2010   4   5   5  16   0     68.845    299.969    -11.783    -52.992    -59.053
2010   4   5   5  17   0     68.845    299.969     -7.644    -50.592    -57.937
2010   4   5   5  18   0     68.845    299.969     -4.610    -49.225    -56.712
2010   4   5   5  19   0     68.845    299.969     -2.740    -48.556    -55.481
2010   4   5   5  20   0     68.845    299.969     -2.503    -48.490    -55.254
2010   4   5   5  21   0     68.845    299.969     -0.794    -47.624    -54.916
2010   4   5   5  22   0     68.845    299.969      4.885    -44.960    -54.584
2010   4   5   5  23   0     68.845    299.969     11.290    -41.382    -53.777
2010   4   5   5  24   0     68.845    299.969     15.925    -38.064    -52.461
2010   4   5   5  25   0     68.845    299.969     21.572    -34.479    -51.654
2010   4   5   5  26   0     68.845    299.969     25.435    -32.016    -51.307
2010   4   5   5  27   0     68.845    299.969     28.439    -30.039    -51.110
2010   4   5   5  28   0     68.845    299.969     30.395    -28.853    -51.359
2010   4   5   5  29   0     68.845    299.969     30.827    -28.284    -50.939
2010   4   5   5  30   0     68.845    299.969     32.083    -27.075    -50.262
2010   4   5   5  31   0     68.845    299.969     32.809    -26.240    -49.681
2010   4   5   5  32   0     68.845    299.969     33.903    -25.108    -48.992
2010   4   5   5  33   0     68.845    299.969     35.626    -23.547    -48.215
2010   4   5   5  34   0     68.845    299.969     36.608    -22.477    -47.455
2010   4   5   5  35   0     68.845    299.969     37.109    -21.499    -46.184
2010   4   5   5  36   0     68.845    299.969     37.365    -21.096    -45.853
2010   4   5   5  37   0     68.845    299.969     37.058    -20.659    -44.574
2010   4   5   5  38   0     68.845    299.969     36.544    -20.647    -43.970
2010   4   5   5  39   0     68.845    299.969     35.432    -21.428    -44.215
2010   4   5   5  40   0     68.845    299.969     33.883    -22.089    -43.635
2010   4   5   5  41   0     68.845    299.969     33.460    -22.133    -43.314
2010   4   5   5  42   0     68.845    299.969     32.083    -22.920    -43.286
2010   4   5   5  43   0     68.845    299.969     31.269    -23.253    -43.056
2010   4   5   5  44   0     68.845    299.969     32.717    -21.706    -41.940
2010   4   5   5  45   0     68.845    299.969     33.565    -20.143    -40.038
2010   4   5   5  46   0     68.845    299.969     34.138    -19.462    -39.514
2010   4   5   5  47   0     68.845    299.969     33.651    -19.264    -38.873
2010   4   5   5  48   0     68.845    299.969     34.913    -18.321    -38.451
2010   4   5   5  49   0     68.845    299.969     35.723    -16.694    -37.038
2010   4   5   5  50   0     68.845    299.969     35.131    -14.308    -37.554
2010   4   5   5  51   0     68.845    299.969     31.843    -15.226    -37.163
2010   4   5   5  52   0     68.845    299.969     29.647    -14.444    -34.677
2010   4   5   5  53   0     68.845    299.969     28.672    -14.467    -33.236
2010   4   5   5  54   0     68.845    299.969     28.842    -14.090    -30.398
2010   4   5   5  55   0     68.845    299.969     27.292    -10.907    -29.249
2010   4   5   5  56   0     68.845    299.969     23.244    -11.509    -27.493
2010   4   5   5  57   0     68.845    299.969     23.074    -11.360    -25.588
2010   4   5   5  58   0     68.845    299.969     24.333    -10.743    -25.130
2010   4   5   5  59   0     68.845    299.969     23.653    -10.966    -25.593
2010   4   5   6   0   0     68.845    299.969     21.822    -12.042    -26.656
2010   4   5   6   1   0     68.845    299.969     22.117    -11.706    -26.267
2010   4   5   6   2   0     68.845    299.969     21.874    -11.712    -26.264
2010   4   5   6   3   0     68.845    299.969     21.407    -11.913    -26.227
2010   4   5   6   4   0     68.845    299.969     20.002    -12.742    -26.940
2010   4   5   6   5   0     68.845    299.969     22.812    -12.236    -27.517
2010   4   5   6   6   0     68.845    299.969     25.075    -11.703    -28.461
2010   4   5   6   7   0     68.845    299.969     24.536    -13.871    -29.080
2010   4   5   6   8   0     68.845    299.969     24.178    -15.781    -29.577
2010   4   5   6   9   0     68.845    299.969     25.155    -15.178    -30.895
2010   4   5   6  10   0     68.845    299.969     28.799    -15.130    -32.437
2010   4   5   6  11   0     68.845    299.969     31.922    -14.436    -31.528
2010   4   5   6  12   0     68.845    299.969     33.723    -15.578    -33.555
2010   4   5   6  13   0     68.845    299.969     33.590    -15.477    -33.225
2010   4   5   6  14   0     68.845    299.969     32.756    -15.393    -32.036
2010   4   5   6  15   0     68.845    299.969     32.048    -15.342    -31.196
2010   4   5   6  16   0     68.845    299.969     31.160    -15.136    -30.519
2010   4   5   6  17   0     68.845    299.969     30.854    -14.318    -30.083
2010   4   5   6  18   0     68.845    299.969     30.744    -13.633    -29.921
2010   4   5   6  19   0     68.845    299.969     31.003    -13.006    -29.589
2010   4   5   6  20   0     68.845    299.969     31.090    -13.137    -29.006
2010   4   5   6  21   0     68.845    299.969     31.592    -13.547    -28.333
2010   4   5   6  22   0     68.845    299.969     32.689    -13.388    -28.105
2010   4   5   6  23   0     68.845    299.969     32.574    -13.000    -27.324
2010   4   5   6  24   0     68.845    299.969     32.480    -12.525    -26.541
2010   4   5   6  25   0     68.845    299.969     32.677    -11.477    -25.440
2010   4   5   6  26   0     68.845    299.969     32.996    -10.308    -24.688
2010   4   5   6  27   0     68.845    299.969     31.643    -11.651    -25.044
2010   4   5   6  28   0     68.845    299.969     29.995    -13.000    -24.457
2010   4   5   6  29   0     68.845    299.969     29.907    -12.846    -23.651
2010   4   5   6  30   0     68.845    299.969     29.764    -12.612    -22.887
2010   4   5   6  31   0     68.845    299.969     29.984    -12.565    -22.328
2010   4   5   6  32   0     68.845    299.969     31.058    -11.367    -21.455
2010   4   5   6  33   0     68.845    299.969     31.082    -11.125    -20.753
2010   4   5   6  34   0     68.845    299.969     31.528    -10.391    -19.835
2010   4   5   6  35   0     68.845    299.969     31.775     -9.803    -18.854
2010   4   5   6  36   0     68.845    299.969     31.676     -9.634    -18.191
2010   4   5   6  37   0     68.845    299.969     31.089    -10.044    -17.767
2010   4   5   6  38   0     68.845    299.969     30.685    -10.234    -17.341
2010   4   5   6  39   0     68.845    299.969     30.457    -10.207    -16.843
2010   4   5   6  40   0     68.845    299.969     30.259    -10.182    -16.432
2010   4   5   6  41   0     68.845    299.969     30.344     -9.764    -15.763
2010   4   5   6  42   0     68.845    299.969     30.071     -9.754    -15.206
2010   4   5   6  43   0     68.845    299.969     30.063     -9.417    -14.617
2010   4   5   6  44   0     68.845    299.969     30.123     -9.097    -14.312
2010   4   5   6  45   0     68.845    299.969     29.186     -9.861    -13.920
2010   4   5   6  46   0     68.845    299.969     28.895     -9.864    -13.435
2010   4   5   6  47   0     68.845    299.969     28.430    -10.110    -13.078
2010   4   5   6  48   0     68.845    299.969     27.835    -10.530    -12.806
2010   4   5   6  49   0     68.845    299.969     27.303    -10.912    -12.609
2010   4   5   6  50   0     68.845    299.969     26.736    -11.146    -12.458
2010   4   5   6  51   0     68.845    299.969     26.408    -10.890    -12.200
2010   4   5   6  52   0     68.845    299.969     26.251    -10.997    -12.152
2010   4   5   6  53   0     68.845    299.969     26.112    -11.118    -12.205
2010   4   5   6  54   0     68.845    299.969     25.935    -11.165    -12.249
2010   4   5   6  55   0     68.845    299.969     25.819    -11.302    -12.135
2010   4   5   6  56   0     68.845    299.969     25.665    -11.431    -12.266
2010   4   5   6  57   0     68.845    299.969     26.010    -11.381    -12.489
2010   4   5   6  58   0     68.845    299.969     26.322    -10.877    -12.419
2010   4   5   6  59   0     68.845    299.969     26.593    -10.333    -12.185
2010   4   5   7   0   0     68.845    299.969     27.090     -9.534    -12.376
2010   4   5   7   1   0     68.845    299.969     26.614    -10.286    -13.376
2010   4   5   7   2   0     68.845    299.969     26.398    -10.857    -14.204
2010   4   5   7   3   0     68.845    299.969     26.293    -11.108    -14.521
2010   4   5   7   4   0     68.845    299.969     26.306    -11.271    -14.535
2010   4   5   7   5   0     68.845    299.969     25.696    -10.890    -13.918
2010   4   5   7   6   0     68.845    299.969     24.267    -11.899    -13.836
2010   4   5   7   7   0     68.845    299.969     22.051    -13.418    -13.989
2010   4   5   7   8   0     68.845    299.969     19.789    -13.344    -13.625
2010   4   5   7   9   0     68.845    299.969     15.476    -14.224    -14.082
2010   4   5   7  10   0     68.845    299.969     14.843    -14.806    -14.653
2010   4   5   7  11   0     68.845    299.969     14.402    -15.418    -14.262
2010   4   5   7  12   0     68.845    299.969     11.895    -14.871    -14.823
2010   4   5   7  13   0     68.845    299.969      4.405    -16.189    -13.808
2010   4   5   7  14   0     68.845    299.969      2.282    -16.765    -12.693
2010   4   5   7  15   0     68.845    299.969     -3.048    -19.052    -11.251
2010   4   5   7  16   0     68.845    299.969    -12.761    -22.594     -8.876
2010   4   5   7  17   0     68.845    299.969    -23.735    -27.008     -6.691
2010   4   5   7  18   0     68.845    299.969    -34.644    -31.716     -4.113
2010   4   5   7  19   0     68.845    299.969    -44.730    -35.816     -0.929
2010   4   5   7  20   0     68.845    299.969    -48.767    -37.315      0.694
2010   4   5   7  21   0     68.845    299.969    -49.669    -37.540      1.323
2010   4   5   7  22   0     68.845    299.969    -54.572    -39.290      3.381
2010   4   5   7  23   0     68.845    299.969    -61.146    -41.496      6.181
2010   4   5   7  24   0     68.845    299.969    -65.469    -42.862      8.158
2010   4   5   7  25   0     68.845    299.969    -77.149    -46.817     13.079
2010   4   5   7  26   0     68.845    299.969    -86.432    -50.501     17.820
2010   4   5   7  27   0     68.845    299.969    -96.091    -54.176     22.464
2010   4   5   7  28   0     68.845    299.969   -100.349    -55.547     24.779
2010   4   5   7  29   0     68.845    299.969   -104.271    -56.574     27.691
2010   4   5   7  30   0     68.845    299.969   -108.279    -57.578     30.550
2010   4   5   7  31   0     68.845    299.969   -111.000    -58.077     32.600
2010   4   5   7  32   0     68.845    299.969   -111.134    -57.637     33.770
2010   4   5   7  33   0     68.845    299.969   -114.578    -58.306     34.755
2010   4   5   7  34   0     68.845    299.969   -117.354    -59.437     39.056
2010   4   5   7  35   0     68.845    299.969   -118.526    -59.662     42.369
2010   4   5   7  36   0     68.845    299.969   -118.882    -60.153     44.328
2010   4   5   7  37   0     68.845    299.969   -121.029    -61.123     45.768
2010   4   5   7  38   0     68.845    299.969   -121.595    -60.884     46.717
2010   4   5   7  39   0     68.845    299.969   -123.780    -61.861     48.234
2010   4   5   7  40   0     68.845    299.969   -126.861    -63.035     49.734
2010   4   5   7  41   0     68.845    299.969   -128.368    -63.399     50.775
2010   4   5   7  42   0     68.845    299.969   -131.271    -64.385     52.040
2010   4   5   7  43   0     68.845    299.969   -133.201    -64.947     53.304
2010   4   5   7  44   0     68.845    299.969   -137.843    -66.666     56.210
2010   4   5   7  45   0     68.845    299.969   -142.708    -68.255     60.854
2010   4   5   7  46   0     68.845    299.969   -146.254    -69.355     63.758
2010   4   5   7  47   0     68.845    299.969   -151.915    -71.303     68.161
2010   4   5   7  48   0     68.845    299.969   -148.370    -69.310     64.485
2010   4   5   7  49   0     68.845    299.969   -144.920    -67.336     64.494
2010   4   5   7  50   0     68.845    299.969   -144.280    -66.627     64.983
2010   4   5   7  51   0     68.845    299.969   -144.045    -65.506     64.992
2010   4   5   7  52   0     68.845    299.969   -141.859    -64.438     61.981
2010   4   5   7  53   0     68.845    299.969   -142.992    -64.354     64.847
2010   4   5   7  54   0     68.845    299.969   -143.260    -64.199     65.466
2010   4   5   7  55   0     68.845    299.969   -143.998    -64.327     64.747
2010   4   5   7  56   0     68.845    299.969   -144.692    -64.070     66.649
2010   4   5   7  57   0     68.845    299.969   -144.567    -63.965     65.284
2010   4   5   7  58   0     68.845    299.969   -144.098    -63.642     64.695
2010   4   5   7  59   0     68.845    299.969   -143.844    -63.157     65.128
2010   4   5   8   0   0     68.845    299.969   -143.252    -62.491     65.581
2010   4   5   8   1   0     68.845    299.969   -142.063    -62.182     64.024
2010   4   5   8   2   0     68.845    299.969   -141.403    -62.170     62.474
2010   4   5   8   3   0     68.845    299.969   -143.107    -62.416     64.501
2010   4   5   8   4   0     68.845    299.969   -145.385    -62.283     69.445
2010   4   5   8   5   0     68.845    299.969   -148.168    -62.569     73.409
2010   4   5   8   6   0     68.845    299.969   -154.722    -64.861     78.701
2010   4   5   8   7   0     68.845    299.969   -163.477    -68.908     84.175
2010   4   5   8   8   0     68.845    299.969   -163.925    -68.781     84.963
2010   4   5   8   9   0     68.845    299.969   -160.180    -66.370     83.729
2010   4   5   8  10   0     68.845    299.969   -156.665    -64.352     82.005
2010   4   5   8  11   0     68.845    299.969   -150.812    -61.734     77.945
2010   4   5   8  12   0     68.845    299.969   -148.663    -60.701     76.870
2010   4   5   8  13   0     68.845    299.969   -146.168    -59.960     74.113
2010   4   5   8  14   0     68.845    299.969   -142.391    -59.556     68.414
2010   4   5   8  15   0     68.845    299.969   -135.759    -58.201     61.789
2010   4   5   8  16   0     68.845    299.969   -128.828    -56.239     56.977
2010   4   5   8  17   0     68.845    299.969   -127.510    -55.000     57.741
2010   4   5   8  18   0     68.845    299.969   -123.818    -52.591     58.306
2010   4   5   8  19   0     68.845    299.969   -120.037    -51.342     55.968
2010   4   5   8  20   0     68.845    299.969   -117.069    -50.427     54.244
2010   4   5   8  21   0     68.845    299.969   -112.394    -49.604     51.325
2010   4   5   8  22   0     68.845    299.969   -107.727    -48.172     48.520
2010   4   5   8  23   0     68.845    299.969   -100.856    -46.229     44.259
2010   4   5   8  24   0     68.845    299.969   -104.552    -47.064     47.078
2010   4   5   8  25   0     68.845    299.969   -111.058    -48.063     51.888
2010   4   5   8  26   0     68.845    299.969   -118.249    -49.451     57.392
2010   4   5   8  27   0     68.845    299.969   -124.479    -51.183     62.251
2010   4   5   8  28   0     68.845    299.969   -130.753    -52.568     67.363
2010   4   5   8  29   0     68.845    299.969   -139.830    -54.551     74.945
2010   4   5   8  30   0     68.845    299.969   -153.531    -58.422     86.173
2010   4   5   8  31   0     68.845    299.969   -163.324    -61.629     94.752
2010   4   5   8  32   0     68.845    299.969   -165.109    -61.850     96.640
2010   4   5   8  33   0     68.845    299.969   -170.263    -63.400    100.946
2010   4   5   8  34   0     68.845    299.969   -175.167    -64.849    106.057
2010   4   5   8  35   0     68.845    299.969   -180.108    -65.882    112.319
2010   4   5   8  36   0     68.845    299.969   -185.899    -66.756    119.319
2010   4   5   8  37   0     68.845    299.969   -191.298    -67.310    124.636
2010   4   5   8  38   0     68.845    299.969   -194.409    -67.619    126.323
2010   4   5   8  39   0     68.845    299.969   -201.061    -67.319    131.614
2010   4   5   8  40   0     68.845    299.969   -200.156    -67.027    131.370
2010   4   5   8  41   0     68.845    299.969   -199.850    -66.390    131.933
2010   4   5   8  42   0     68.845    299.969   -203.395    -65.914    134.807
2010   4   5   8  43   0     68.845    299.969   -204.188    -64.938    136.209
2010   4   5   8  44   0     68.845    299.969   -221.017    -71.181    147.950
2010   4   5   8  45   0     68.845    299.969   -217.583    -71.999    176.323
2010   4   5   8  46   0     68.845    299.969   -252.041    -67.646    195.752
2010   4   5   8  47   0     68.845    299.969   -269.166    -68.305    209.944
2010   4   5   8  48   0     68.845    299.969   -270.749    -71.755    225.398
2010   4   5   8  49   0     68.845    299.969   -282.362    -73.742    237.547
2010   4   5   8  50   0     68.845    299.969   -289.212    -75.301    246.899
2010   4   5   8  51   0     68.845    299.969   -291.530    -77.867    254.868
2010   4   5   8  52   0     68.845    299.969   -287.083    -77.712    268.596
2010   4   5   8  53   0     68.845    299.969   -274.212    -74.341    283.822
2010   4   5   8  54   0     68.845    299.969   -264.993    -72.084    302.894
2010   4   5   8  55   0     68.845    299.969   -289.636    -71.897    323.476
2010   4   5   8  56   0     68.845    299.969   -322.593    -72.943    333.149
2010   4   5   8  57   0     68.845    299.969   -345.920    -72.994    343.731
2010   4   5   8  58   0     68.845    299.969   -381.980    -81.010    354.276
2010   4   5   8  59   0     68.845    299.969   -385.165    -81.242    355.487
2010   4   5   9   0   0     68.845    299.969   -389.955    -81.474    358.184
2010   4   5   9   1   0     68.845    299.969   -392.529    -81.359    359.770
2010   4   5   9   2   0     68.845    299.969   -387.179    -79.689    358.210
2010   4   5   9   3   0     68.845    299.969   -385.697    -79.709    355.309
2010   4   5   9   4   0     68.845    299.969   -382.815    -78.978    353.023
2010   4   5   9   5   0     68.845    299.969   -371.649    -74.323    353.025
2010   4   5   9   6   0     68.845    299.969   -364.254    -70.913    353.362
2010   4   5   9   7   0     68.845    299.969   -349.354    -69.060    352.450
2010   4   5   9   8   0     68.845    299.969   -341.702    -68.337    352.091
2010   4   5   9   9   0     68.845    299.969   -330.022    -67.439    350.728
2010   4   5   9  10   0     68.845    299.969   -319.496    -66.994    347.508
2010   4   5   9  11   0     68.845    299.969   -309.159    -65.651    346.189
2010   4   5   9  12   0     68.845    299.969   -314.950    -65.990    347.730
2010   4   5   9  13   0     68.845    299.969   -298.997    -65.458    342.668
2010   4   5   9  14   0     68.845    299.969   -292.936    -63.713    341.988
2010   4   5   9  15   0     68.845    299.969   -288.769    -62.431    339.790
2010   4   5   9  16   0     68.845    299.969   -292.610    -61.544    334.584
2010   4   5   9  17   0     68.845    299.969   -295.955    -60.342    332.493
2010   4   5   9  18   0     68.845    299.969   -298.634    -59.650    331.390
2010   4   5   9  19   0     68.845    299.969   -303.807    -59.774    328.340
2010   4   5   9  20   0     68.845    299.969   -304.302    -59.140    328.465
2010   4   5   9  21   0     68.845    299.969   -310.166    -58.494    329.103
2010   4   5   9  22   0     68.845    299.969   -308.693    -57.434    332.258
2010   4   5   9  23   0     68.845    299.969   -315.089    -58.243    329.242
2010   4   5   9  24   0     68.845    299.969   -321.854    -58.760    327.944
2010   4   5   9  25   0     68.845    299.969   -343.247    -63.494    326.087
2010   4   5   9  26   0     68.845    299.969   -349.374    -64.382    326.633
2010   4   5   9  27   0     68.845    299.969   -359.334    -66.195    323.688
2010   4   5   9  28   0     68.845    299.969   -360.649    -65.262    322.615
2010   4   5   9  29   0     68.845    299.969   -362.160    -64.326    321.590
2010   4   5   9  30   0     68.845    299.969   -362.809    -63.587    316.084
2010   4   5   9  31   0     68.845    299.969   -359.482    -62.683    306.613
2010   4   5   9  32   0     68.845    299.969   -337.947    -56.529    294.297
2010   4   5   9  33   0     68.845    299.969   -313.461    -54.755    269.605
2010   4   5   9  34   0     68.845    299.969   -280.384    -53.096    243.986
2010   4   5   9  35   0     68.845    299.969   -249.831    -51.086    217.802
2010   4   5   9  36   0     68.845    299.969   -227.415    -49.305    197.426
2010   4   5   9  37   0     68.845    299.969   -201.978    -46.347    166.677
2010   4   5   9  38   0     68.845    299.969   -178.401    -44.394    139.542
2010   4   5   9  39   0     68.845    299.969   -151.675    -45.193    111.393
2010   4   5   9  40   0     68.845    299.969   -138.092    -45.425     96.215
2010   4   5   9  41   0     68.845    299.969   -129.763    -47.579     81.168
2010   4   5   9  42   0     68.845    299.969   -123.638    -46.453     77.531
2010   4   5   9  43   0     68.845    299.969   -117.609    -47.353     74.580
2010   4   5   9  44   0     68.845    299.969   -108.036    -49.461     70.096
2010   4   5   9  45   0     68.845    299.969    -94.012    -47.574     60.695
2010   4   5   9  46   0     68.845    299.969    -85.515    -45.301     60.358
2010   4   5   9  47   0     68.845    299.969    -86.992    -45.416     58.095
2010   4   5   9  48   0     68.845    299.969    -91.249    -45.986     60.791
2010   4   5   9  49   0     68.845    299.969    -86.102    -44.642     59.599
2010   4   5   9  50   0     68.845    299.969    -80.365    -43.012     59.940
2010   4   5   9  51   0     68.845    299.969    -78.800    -42.501     53.612
2010   4   5   9  52   0     68.845    299.969    -82.694    -43.237     54.635
2010   4   5   9  53   0     68.845    299.969    -92.442    -44.886     62.666
2010   4   5   9  54   0     68.845    299.969   -105.917    -45.439     76.820
2010   4   5   9  55   0     68.845    299.969   -117.152    -44.075     82.131
2010   4   5   9  56   0     68.845    299.969   -127.274    -43.082     87.778
2010   4   5   9  57   0     68.845    299.969   -139.762    -43.028     95.802
2010   4   5   9  58   0     68.845    299.969   -154.792    -43.159    106.785
2010   4   5   9  59   0     68.845    299.969   -179.608    -44.669    125.361
2010   4   5  10   0   0     68.845    299.969   -209.315    -45.143    148.881
2010   4   5  10   1   0     68.845    299.969   -235.454    -42.823    167.472
2010   4   5  10   2   0     68.845    299.969   -258.789    -39.886    191.254
2010   4   5  10   3   0     68.845    299.969   -274.926    -36.323    208.590
2010   4   5  10   4   0     68.845    299.969   -284.148    -36.927    223.407
2010   4   5  10   5   0     68.845    299.969   -279.897    -51.072    236.742
2010   4   5  10   6   0     68.845    299.969   -317.991    -53.354    275.031
2010   4   5  10   7   0     68.845    299.969   -359.250    -52.133    312.113
2010   4   5  10   8   0     68.845    299.969   -383.895    -50.469    335.674
2010   4   5  10   9   0     68.845    299.969   -397.145    -49.106    350.101
2010   4   5  10  10   0     68.845    299.969   -407.516    -47.838    362.499
2010   4   5  10  11   0     68.845    299.969   -422.149    -46.365    377.160
2010   4   5  10  12   0     68.845    299.969   -427.430    -45.264    383.996
2010   4   5  10  13   0     68.845    299.969   -424.052    -44.340    387.092
2010   4   5  10  14   0     68.845    299.969   -357.197    -38.409    338.554
2010   4   5  10  15   0     68.845    299.969   -354.962    -18.698    322.342
2010   4   5  10  16   0     68.845    299.969   -383.003    -41.636    342.967
2010   4   5  10  17   0     68.845    299.969   -380.337    -35.744    326.876
2010   4   5  10  18   0     68.845    299.969   -341.774    -28.624    308.629
2010   4   5  10  19   0     68.845    299.969   -267.259    -41.864    234.462
2010   4   5  10  20   0     68.845    299.969   -205.071    -34.419    195.445
2010   4   5  10  21   0     68.845    299.969   -169.822    -31.503    158.204
2010   4   5  10  22   0     68.845    299.969   -160.891    -28.848    143.292
2010   4   5  10  23   0     68.845    299.969   -130.064    -28.835    127.876
2010   4   5  10  24   0     68.845    299.969    -92.226    -25.182     98.540
2010   4   5  10  25   0     68.845    299.969    -66.386    -15.161     84.931
2010   4   5  10  26   0     68.845    299.969    -47.233     -8.530     66.811
2010   4   5  10  27   0     68.845    299.969    -43.158    -13.140     59.638
2010   4   5  10  28   0     68.845    299.969    -24.221    -15.520     76.791
2010   4   5  10  29   0     68.845    299.969    -21.563    -13.949     75.876
2010   4   5  10  30   0     68.845    299.969    -17.951    -10.855     72.041
2010   4   5  10  31   0     68.845    299.969    -15.569     -8.121     66.854
2010   4   5  10  32   0     68.845    299.969    -22.102     -9.339     68.664
2010   4   5  10  33   0     68.845    299.969    -28.676    -10.550     70.880
2010   4   5  10  34   0     68.845    299.969    -35.540    -11.756     73.424
2010   4   5  10  35   0     68.845    299.969    -44.405    -11.829     71.981
2010   4   5  10  36   0     68.845    299.969    -42.430    -11.332     72.942
2010   4   5  10  37   0     68.845    299.969    -29.368    -12.090     79.633
2010   4   5  10  38   0     68.845    299.969    -30.035    -11.993     80.724
2010   4   5  10  39   0     68.845    299.969    -41.873    -13.433     83.746
2010   4   5  10  40   0     68.845    299.969    -41.930    -12.530     83.445
2010   4   5  10  41   0     68.845    299.969    -44.128    -11.551     82.387
2010   4   5  10  42   0     68.845    299.969    -56.285    -10.798     79.088
2010   4   5  10  43   0     68.845    299.969    -65.723    -11.374     81.401
2010   4   5  10  44   0     68.845    299.969    -79.957    -13.112     88.529
2010   4   5  10  45   0     68.845    299.969    -92.377    -16.801    101.164
2010   4   5  10  46   0     68.845    299.969   -117.583    -23.114    117.234
2010   4   5  10  47   0     68.845    299.969   -124.843    -21.722    119.609
2010   4   5  10  48   0     68.845    299.969   -124.506    -20.335    119.311
2010   4   5  10  49   0     68.845    299.969   -130.975    -19.163    121.446
2010   4   5  10  50   0     68.845    299.969   -127.151    -18.785    120.597
2010   4   5  10  51   0     68.845    299.969   -128.002    -17.808    120.645
2010   4   5  10  52   0     68.845    299.969   -135.450    -17.269    123.698
2010   4   5  10  53   0     68.845    299.969   -139.439    -16.172    124.777
2010   4   5  10  54   0     68.845    299.969   -136.956    -14.344    121.945
2010   4   5  10  55   0     68.845    299.969   -146.230    -15.214    128.239
2010   4   5  10  56   0     68.845    299.969   -146.351    -14.915    128.823
2010   4   5  10  57   0     68.845    299.969   -132.723    -14.374    123.475
2010   4   5  10  58   0     68.845    299.969   -127.532    -13.070    120.821
2010   4   5  10  59   0     68.845    299.969   -114.923    -10.683    113.760
2010   4   5  11   0   0     68.845    299.969   -102.282     -6.164     99.992
2010   4   5  11   1   0     68.845    299.969    -84.995     -3.311     89.046
2010   4   5  11   2   0     68.845    299.969    -83.662     -2.787     89.271
2010   4   5  11   3   0     68.845    299.969    -93.162     -2.475     91.921
2010   4   5  11   4   0     68.845    299.969    -95.759     -1.226     94.621
2010   4   5  11   5   0     68.845    299.969   -101.298     -0.659     98.375
2010   4   5  11   6   0     68.845    299.969   -107.515      0.058    102.732
2010   4   5  11   7   0     68.845    299.969   -111.769      1.206    106.194
2010   4   5  11   8   0     68.845    299.969   -110.215      0.950    104.422
2010   4   5  11   9   0     68.845    299.969   -110.578      0.910    104.102
2010   4   5  11  10   0     68.845    299.969   -105.364      2.971    102.457
2010   4   5  11  11   0     68.845    299.969    -97.025      5.796     99.349
2010   4   5  11  12   0     68.845    299.969    -84.566      9.136     93.595
2010   4   5  11  13   0     68.845    299.969    -77.642     10.211     89.612
2010   4   5  11  14   0     68.845    299.969    -74.950     10.715     87.948
2010   4   5  11  15   0     68.845    299.969    -79.286      9.292     89.527
2010   4   5  11  16   0     68.845    299.969    -85.911      7.858     92.082
2010   4   5  11  17   0     68.845    299.969    -78.122      7.922     87.343
2010   4   5  11  18   0     68.845    299.969    -70.820      8.094     83.142
2010   4   5  11  19   0     68.845    299.969    -65.626      7.874     82.900
2010   4   5  11  20   0     68.845    299.969    -48.406      8.924     83.265
2010   4   5  11  21   0     68.845    299.969    -40.275      9.518     84.435
2010   4   5  11  22   0     68.845    299.969    -44.460     10.116     82.773
2010   4   5  11  23   0     68.845    299.969    -37.253     10.363     85.180
2010   4   5  11  24   0     68.845    299.969    -34.966     10.409     86.856
2010   4   5  11  25   0     68.845    299.969    -40.500      9.068     91.264
2010   4   5  11  26   0     68.845    299.969    -47.392      6.696     95.967
2010   4   5  11  27   0     68.845    299.969    -69.928      3.089     91.065
2010   4   5  11  28   0     68.845    299.969    -77.930      1.664     89.819
2010   4   5  11  29   0     68.845    299.969    -89.384     -0.696     90.413
2010   4   5  11  30   0     68.845    299.969    -99.456     -2.603     92.321
2010   4   5  11  31   0     68.845    299.969    -98.306     -1.235     93.264
2010   4   5  11  32   0     68.845    299.969   -103.320     -0.971     96.217
2010   4   5  11  33   0     68.845    299.969   -105.408      0.820    102.284
2010   4   5  11  34   0     68.845    299.969   -102.243      1.988    102.064
2010   4   5  11  35   0     68.845    299.969   -113.471      1.916    110.567
2010   4   5  11  36   0     68.845    299.969   -120.163      1.877    114.492
2010   4   5  11  37   0     68.845    299.969   -114.773      0.704    103.815
2010   4   5  11  38   0     68.845    299.969   -114.889      1.814    105.625
2010   4   5  11  39   0     68.845    299.969   -102.739      4.680    103.387
2010   4   5  11  40   0     68.845    299.969    -86.940      7.567     97.906
2010   4   5  11  41   0     68.845    299.969    -79.925      9.163     95.052
2010   4   5  11  42   0     68.845    299.969    -67.777     11.970     93.288
2010   4   5  11  43   0     68.845    299.969    -58.827     13.980     89.517
2010   4   5  11  44   0     68.845    299.969    -47.925     16.307     82.952
2010   4   5  11  45   0     68.845    299.969    -36.608     18.727     76.850
2010   4   5  11  46   0     68.845    299.969    -30.276     20.027     74.414
2010   4   5  11  47   0     68.845    299.969    -11.488     22.458     71.747
2010   4   5  11  48   0     68.845    299.969     17.432     22.716     68.882
2010   4   5  11  49   0     68.845    299.969     34.136     24.785     64.623
2010   4   5  11  50   0     68.845    299.969     57.394     24.509     56.545
2010   4   5  11  51   0     68.845    299.969     61.439     25.691     55.665
2010   4   5  11  52   0     68.845    299.969     52.438     27.662     63.138
2010   4   5  11  53   0     68.845    299.969     44.857     30.066     69.613
2010   4   5  11  54   0     68.845    299.969     41.972     31.389     72.192
2010   4   5  11  55   0     68.845    299.969     40.661     32.396     73.349
2010   4   5  11  56   0     68.845    299.969     38.942     33.644     74.840
2010   4   5  11  57   0     68.845    299.969     37.403     34.428     76.011
2010   4   5  11  58   0     68.845    299.969     36.589     35.235     76.615
2010   4   5  11  59   0     68.845    299.969     36.652     35.767     76.418
2010   4   5  12   0   0     68.845    299.969     37.084     36.186     75.811
2010   4   5  12   1   0     68.845    299.969     37.698     36.439     74.972
2010   4   5  12   2   0     68.845    299.969     37.542     36.681     74.818
2010   4   5  12   3   0     68.845    299.969     37.540     36.859     74.477
2010   4   5  12   4   0     68.845    299.969     37.756     36.784     73.835
2010   4   5  12   5   0     68.845    299.969     38.130     36.403     72.831
2010   4   5  12   6   0     68.845    299.969     37.435     36.138     72.742
2010   4   5  12   7   0     68.845    299.969     37.101     36.459     72.574
2010   4   5  12   8   0     68.845    299.969     37.309     36.464     71.827
2010   4   5  12   9   0     68.845    299.969     36.331     36.727     72.099
2010   4   5  12  10   0     68.845    299.969     35.106     36.652     72.281
2010   4   5  12  11   0     68.845    299.969     33.787     36.577     72.496
2010   4   5  12  12   0     68.845    299.969     32.209     36.831     73.086
2010   4   5  12  13   0     68.845    299.969     31.467     36.970     72.978
2010   4   5  12  14   0     68.845    299.969     30.969     37.004     72.630
2010   4   5  12  15   0     68.845    299.969     29.801     37.039     72.754
2010   4   5  12  16   0     68.845    299.969     28.748     37.090     72.799
2010   4   5  12  17   0     68.845    299.969     28.275     37.043     72.403
2010   4   5  12  18   0     68.845    299.969     27.295     37.008     72.359
2010   4   5  12  19   0     68.845    299.969     25.837     37.074     72.718
2010   4   5  12  20   0     68.845    299.969     24.319     37.282     73.242
2010   4   5  12  21   0     68.845    299.969     23.229     37.163     73.179
2010   4   5  12  22   0     68.845    299.969     21.752     37.302     73.415
2010   4   5  12  23   0     68.845    299.969     20.240     37.374     73.652
2010   4   5  12  24   0     68.845    299.969     17.632     36.750     74.188
2010   4   5  12  25   0     68.845    299.969     15.403     36.523     74.688
2010   4   5  12  26   0     68.845    299.969     12.427     35.792     75.235
2010   4   5  12  27   0     68.845    299.969      9.096     35.820     76.415
2010   4   5  12  28   0     68.845    299.969      7.535     36.193     76.798
2010   4   5  12  29   0     68.845    299.969      8.012     36.759     76.181
2010   4   5  12  30   0     68.845    299.969     10.100     37.140     74.585
2010   4   5  12  31   0     68.845    299.969     13.732     37.638     72.101
2010   4   5  12  32   0     68.845    299.969     15.511     38.679     70.979
2010   4   5  12  33   0     68.845    299.969     18.102     39.670     69.227
2010   4   5  12  34   0     68.845    299.969     18.477     40.492     68.776
2010   4   5  12  35   0     68.845    299.969     18.094     41.538     68.976
2010   4   5  12  36   0     68.845    299.969     18.002     42.029     68.514
2010   4   5  12  37   0     68.845    299.969     17.656     42.205     68.046
2010   4   5  12  38   0     68.845    299.969     15.885     41.609     68.115
2010   4   5  12  39   0     68.845    299.969     28.357     42.741     58.416
2010   4   5  12  40   0     68.845    299.969     34.906     44.987     51.905
2010   4   5  12  41   0     68.845    299.969     37.124     48.151     47.629
2010   4   5  12  42   0     68.845    299.969     35.791     51.256     43.962
2010   4   5  12  43   0     68.845    299.969     30.597     53.814     44.442
2010   4   5  12  44   0     68.845    299.969     24.292     55.439     47.810
2010   4   5  12  45   0     68.845    299.969     19.156     56.236     52.045
2010   4   5  12  46   0     68.845    299.969     14.281     56.999     55.666
2010   4   5  12  47   0     68.845    299.969     10.909     57.581     57.718
2010   4   5  12  48   0     68.845    299.969      8.719     58.037     58.972
2010   4   5  12  49   0     68.845    299.969      4.349     58.625     61.738
2010   4   5  12  50   0     68.845    299.969      7.151     61.378     47.830
2010   4   5  12  51   0     68.845    299.969     20.152     62.349     49.231
2010   4   5  12  52   0     68.845    299.969     33.871     63.988     42.655
2010   4   5  12  53   0     68.845    299.969     31.115     63.344     37.528
2010   4   5  12  54   0     68.845    299.969     29.872     62.084     39.925
2010   4   5  12  55   0     68.845    299.969     27.852     59.495     46.198
2010   4   5  12  56   0     68.845    299.969     14.676     59.451     53.707
2010   4   5  12  57   0     68.845    299.969     -8.714     59.501     64.899
2010   4   5  12  58   0     68.845    299.969    -59.054     54.808     73.917
2010   4   5  12  59   0     68.845    299.969    -88.500     42.714     93.594
2010   4   5  13   0   0     68.845    299.969   -108.044     26.280    117.154
2010   4   5  13   1   0     68.845    299.969   -132.477     14.954    141.012
2010   4   5  13   2   0     68.845    299.969   -173.670     22.060    162.162
2010   4   5  13   3   0     68.845    299.969   -216.887     28.289    181.078
2010   4   5  13   4   0     68.845    299.969   -257.780     37.165    191.984
2010   4   5  13   5   0     68.845    299.969   -250.385     38.555    187.339
2010   4   5  13   6   0     68.845    299.969   -243.286     38.866    184.097
2010   4   5  13   7   0     68.845    299.969   -239.476     37.974    183.613
2010   4   5  13   8   0     68.845    299.969   -229.842     37.192    180.043
2010   4   5  13   9   0     68.845    299.969   -219.120     36.898    175.254
2010   4   5  13  10   0     68.845    299.969   -206.780     36.965    169.220
2010   4   5  13  11   0     68.845    299.969   -193.250     35.669    163.427
2010   4   5  13  12   0     68.845    299.969   -185.123     35.436    159.332
2010   4   5  13  13   0     68.845    299.969   -183.665     34.677    158.966
2010   4   5  13  14   0     68.845    299.969   -182.021     34.140    158.313
2010   4   5  13  15   0     68.845    299.969   -178.687     34.359    156.228
2010   4   5  13  16   0     68.845    299.969   -175.932     34.788    154.310
2010   4   5  13  17   0     68.845    299.969   -178.563     34.689    155.637
2010   4   5  13  18   0     68.845    299.969   -181.065     35.236    156.558
2010   4   5  13  19   0     68.845    299.969   -187.966     33.077    161.574
2010   4   5  13  20   0     68.845    299.969   -198.191     29.196    169.789
2010   4   5  13  21   0     68.845    299.969   -209.681     26.111    178.613
2010   4   5  13  22   0     68.845    299.969   -217.839     26.399    183.297
2010   4   5  13  23   0     68.845    299.969   -229.676     26.136    190.740
2010   4   5  13  24   0     68.845    299.969   -245.159     27.286    199.251
2010   4   5  13  25   0     68.845    299.969   -264.381     28.152    210.131
2010   4   5  13  26   0     68.845    299.969   -279.550     29.924    217.354
2010   4   5  13  27   0     68.845    299.969   -287.455     30.676    221.276
2010   4   5  13  28   0     68.845    299.969   -286.975     31.500    220.168
2010   4   5  13  29   0     68.845    299.969   -292.934     32.192    222.959
2010   4   5  13  30   0     68.845    299.969   -297.849     32.597    225.490
2010   4   5  13  31   0     68.845    299.969   -303.626     32.890    228.664
2010   4   5  13  32   0     68.845    299.969   -307.818     32.686    231.617
2010   4   5  13  33   0     68.845    299.969   -300.840     33.363    226.875
2010   4   5  13  34   0     68.845    299.969   -292.775     35.062    220.236
2010   4   5  13  35   0     68.845    299.969   -281.537     38.484    209.906
2010   4   5  13  36   0     68.845    299.969   -273.824     41.906    201.930
2010   4   5  13  37   0     68.845    299.969   -274.579     42.848    201.511
2010   4   5  13  38   0     68.845    299.969   -272.892     44.288    199.249
2010   4   5  13  39   0     68.845    299.969   -273.755     44.411    199.808
2010   4   5  13  40   0     68.845    299.969   -268.374     45.567    195.875
2010   4   5  13  41   0     68.845    299.969   -268.257     45.614    195.949
2010   4   5  13  42   0     68.845    299.969   -269.370     45.441    196.930
2010   4   5  13  43   0     68.845    299.969   -273.932     44.604    200.504
2010   4   5  13  44   0     68.845    299.969   -278.408     43.747    204.115
2010   4   5  13  45   0     68.845    299.969   -282.530     42.869    207.605
2010   4   5  13  46   0     68.845    299.969   -287.047     42.087    211.247
2010   4   5  13  47   0     68.845    299.969   -286.460     41.829    211.383
2010   4   5  13  48   0     68.845    299.969   -291.451     40.883    215.479
2010   4   5  13  49   0     68.845    299.969   -293.768     40.245    217.699
2010   4   5  13  50   0     68.845    299.969   -297.359     39.364    220.977
2010   4   5  13  51   0     68.845    299.969   -298.249     38.779    222.321
2010   4   5  13  52   0     68.845    299.969   -299.743     38.271    223.930
2010   4   5  13  53   0     68.845    299.969   -302.658     37.524    226.711
2010   4   5  13  54   0     68.845    299.969   -302.474     37.230    227.038
2010   4   5  13  55   0     68.845    299.969   -302.219     36.809    227.480
2010   4   5  13  56   0     68.845    299.969   -302.895     36.278    228.642
2010   4   5  13  57   0     68.845    299.969   -304.024     35.557    230.318
2010   4   5  13  58   0     68.845    299.969   -300.171     35.518    227.895
2010   4   5  13  59   0     68.845    299.969   -292.603     35.591    222.803
2010   4   5  14   0   0     68.845    299.969   -293.233     35.303    223.571
2010   4   5  14   1   0     68.845    299.969   -292.369     35.222    223.104
2010   4   5  14   2   0     68.845    299.969   -288.071     35.242    220.153
2010   4   5  14   3   0     68.845    299.969   -283.055     35.260    216.669
2010   4   5  14   4   0     68.845    299.969   -283.472     34.660    217.542
2010   4   5  14   5   0     68.845    299.969   -287.181     34.143    220.397
2010   4   5  14   6   0     68.845    299.969   -283.746     36.557    214.595
2010   4   5  14   7   0     68.845    299.969   -278.658     39.200    207.242
2010   4   5  14   8   0     68.845    299.969   -284.224     43.223    204.316
2010   4   5  14   9   0     68.845    299.969   -290.901     46.180    203.505
2010   4   5  14  10   0     68.845    299.969   -297.638     48.925    202.749
2010   4   5  14  11   0     68.845    299.969   -303.279     51.500    201.319
2010   4   5  14  12   0     68.845    299.969   -305.522     53.525    198.809
2010   4   5  14  13   0     68.845    299.969   -311.847     55.457    198.724
2010   4   5  14  14   0     68.845    299.969   -322.151     56.708    202.380
2010   4   5  14  15   0     68.845    299.969   -323.622     58.809    198.695
2010   4   5  14  16   0     68.845    299.969   -330.540     61.499    196.245
2010   4   5  14  17   0     68.845    299.969   -338.798     63.148    196.961
2010   4   5  14  18   0     68.845    299.969   -351.462     64.083    201.839
2010   4   5  14  19   0     68.845    299.969   -354.446     65.088    201.395
2010   4   5  14  20   0     68.845    299.969   -353.508     65.478    200.810
2010   4   5  14  21   0     68.845    299.969   -367.555     65.952    207.737
2010   4   5  14  22   0     68.845    299.969   -379.913     65.780    215.975
2010   4   5  14  23   0     68.845    299.969   -384.244     65.416    220.849
2010   4   5  14  24   0     68.845    299.969   -382.945     66.188    218.854
2010   4   5  14  25   0     68.845    299.969   -382.436     66.724    218.048
2010   4   5  14  26   0     68.845    299.969   -382.224     67.112    217.891
2010   4   5  14  27   0     68.845    299.969   -382.761     67.681    217.515
2010   4   5  14  28   0     68.845    299.969   -383.006     68.554    215.912
2010   4   5  14  29   0     68.845    299.969   -383.351     69.463    214.181
2010   4   5  14  30   0     68.845    299.969   -383.442     70.331    212.429
2010   4   5  14  31   0     68.845    299.969   -382.806     70.359    213.311
2010   4   5  14  32   0     68.845    299.969   -379.344     72.963    203.442
2010   4   5  14  33   0     68.845    299.969   -377.571     73.695    201.167
2010   4   5  14  34   0     68.845    299.969   -375.527     76.308    191.653
2010   4   5  14  35   0     68.845    299.969   -374.155     78.106    185.308
2010   4   5  14  36   0     68.845    299.969   -368.861     80.046    176.405
2010   4   5  14  37   0     68.845    299.969   -366.415     81.627    169.984
2010   4   5  14  38   0     68.845    299.969   -362.251     83.472    161.756
2010   4   5  14  39   0     68.845    299.969   -366.320     85.531    156.080
2010   4   5  14  40   0     68.845    299.969   -364.027     87.832    148.590
2010   4   5  14  41   0     68.845    299.969   -359.228     90.271    140.844
2010   4   5  14  42   0     68.845    299.969   -355.593     93.246    133.474
2010   4   5  14  43   0     68.845    299.969   -354.522     95.355    129.572
2010   4   5  14  44   0     68.845    299.969   -348.411     97.642    122.895
2010   4   5  14  45   0     68.845    299.969   -344.099     99.656    117.923
2010   4   5  14  46   0     68.845    299.969   -336.765    102.489    110.990
2010   4   5  14  47   0     68.845    299.969   -346.222    103.026    115.238
2010   4   5  14  48   0     68.845    299.969   -338.554    105.671    108.711
2010   4   5  14  49   0     68.845    299.969   -345.653    106.297    111.557
2010   4   5  14  50   0     68.845    299.969   -346.447    107.650    110.588
2010   4   5  14  51   0     68.845    299.969   -348.946    108.139    110.997
2010   4   5  14  52   0     68.845    299.969   -347.352    109.067    108.944
2010   4   5  14  53   0     68.845    299.969   -346.424    109.720    107.388
2010   4   5  14  54   0     68.845    299.969   -343.423    110.320    104.728
2010   4   5  14  55   0     68.845    299.969   -336.085    110.764    101.009
2010   4   5  14  56   0     68.845    299.969   -334.866    111.010     99.721
2010   4   5  14  57   0     68.845    299.969   -335.385    111.287     98.294
2010   4   5  14  58   0     68.845    299.969   -331.659    111.575     95.054
2010   4   5  14  59   0     68.845    299.969   -331.276    111.793     93.931
2010   4   5  15   0   0     68.845    299.969   -328.670    112.029     91.736
2010   4   5  15   1   0     68.845    299.969   -326.534    111.670     89.696
2010   4   5  15   2   0     68.845    299.969   -322.572    111.471     86.927
2010   4   5  15   3   0     68.845    299.969   -322.501    110.998     86.371
2010   4   5  15   4   0     68.845    299.969   -324.987    110.466     87.278
2010   4   5  15   5   0     68.845    299.969   -327.176    110.254     87.912
2010   4   5  15   6   0     68.845    299.969   -328.359    110.297     87.864
2010   4   5  15   7   0     68.845    299.969   -332.347    110.495     89.298
2010   4   5  15   8   0     68.845    299.969   -333.382    110.451     89.263
2010   4   5  15   9   0     68.845    299.969   -337.237    109.989     91.200
2010   4   5  15  10   0     68.845    299.969   -348.001    108.627     98.249
2010   4   5  15  11   0     68.845    299.969   -351.834    108.231    100.520
2010   4   5  15  12   0     68.845    299.969   -351.182    107.864    100.025
2010   4   5  15  13   0     68.845    299.969   -352.213    108.058    100.011
2010   4   5  15  14   0     68.845    299.969   -355.579    107.567    102.312
2010   4   5  15  15   0     68.845    299.969   -357.839    107.245    103.799
2010   4   5  15  16   0     68.845    299.969   -356.655    107.323    102.536
2010   4   5  15  17   0     68.845    299.969   -359.397    107.087    104.336
2010   4   5  15  18   0     68.845    299.969   -357.968    107.010    103.128
2010   4   5  15  19   0     68.845    299.969   -353.033    107.284     99.055
2010   4   5  15  20   0     68.845    299.969   -348.121    107.266     95.388
2010   4   5  15  21   0     68.845    299.969   -345.118    107.481     92.717
2010   4   5  15  22   0     68.845    299.969   -339.928    107.450     88.887
2010   4   5  15  23   0     68.845    299.969   -338.036    107.414     87.272
2010   4   5  15  24   0     68.845    299.969   -334.939    107.647     84.523
2010   4   5  15  25   0     68.845    299.969   -330.730    107.829     81.110
2010   4   5  15  26   0     68.845    299.969   -326.141    107.961     77.522
2010   4   5  15  27   0     68.845    299.969   -322.324    108.295     74.241
2010   4   5  15  28   0     68.845    299.969   -320.701    108.335     72.707
2010   4   5  15  29   0     68.845    299.969   -318.309    108.728     70.311
2010   4   5  15  30   0     68.845    299.969   -314.512    108.800     67.364
2010   4   5  15  31   0     68.845    299.969   -314.354    109.081     66.527
2010   4   5  15  32   0     68.845    299.969   -307.987    109.337     61.814
2010   4   5  15  33   0     68.845    299.969   -305.727    109.529     59.764
2010   4   5  15  34   0     68.845    299.969   -303.883    109.821     57.890
2010   4   5  15  35   0     68.845    299.969   -301.188    110.063     55.552
2010   4   5  15  36   0     68.845    299.969   -296.828    110.257     52.276
2010   4   5  15  37   0     68.845    299.969   -294.556    110.370     50.332
2010   4   5  15  38   0     68.845    299.969   -298.367    110.824     51.743
2010   4   5  15  39   0     68.845    299.969   -298.324    111.023     51.071
2010   4   5  15  40   0     68.845    299.969   -299.442    111.333     51.015
2010   4   5  15  41   0     68.845    299.969   -299.883    111.577     50.611
2010   4   5  15  42   0     68.845    299.969   -300.784    111.629     50.672
2010   4   5  15  43   0     68.845    299.969   -298.978    111.707     49.047
2010   4   5  15  44   0     68.845    299.969   -297.006    111.705     47.401
2010   4   5  15  45   0     68.845    299.969   -298.664    112.080     47.648
2010   4   5  15  46   0     68.845    299.969   -296.450    112.097     45.841
2010   4   5  15  47   0     68.845    299.969   -295.506    112.197     44.740
2010   4   5  15  48   0     68.845    299.969   -294.479    112.160     43.718
2010   4   5  15  49   0     68.845    299.969   -292.327    111.956     42.160
2010   4   5  15  50   0     68.845    299.969   -292.895    111.950     42.104
2010   4   5  15  51   0     68.845    299.969   -293.779    111.922     42.283
2010   4   5  15  52   0     68.845    299.969   -292.067    112.125     40.621
2010   4   5  15  53   0     68.845    299.969   -284.211    111.961     35.539
2010   4   5  15  54   0     68.845    299.969   -279.319    112.458     31.748
2010   4   5  15  55   0     68.845    299.969   -272.180    112.358     27.262
2010   4   5  15  56   0     68.845    299.969   -263.032    112.061     21.921
2010   4   5  15  57   0     68.845    299.969   -259.665    112.263     19.445
2010   4   5  15  58   0     68.845    299.969   -254.899    112.196     16.445
2010   4   5  15  59   0     68.845    299.969   -251.006    112.221     13.863
2010   4   5  16   0   0     68.845    299.969   -249.134    112.397     12.238
2010   4   5  16   1   0     68.845    299.969   -246.833    112.128     10.969
2010   4   5  16   2   0     68.845    299.969   -248.121    111.971     11.479
2010   4   5  16   3   0     68.845    299.969   -248.873    111.679     12.016
2010   4   5  16   4   0     68.845    299.969   -249.648    111.411     12.526
2010   4   5  16   5   0     68.845    299.969   -249.543    110.989     12.815
2010   4   5  16   6   0     68.845    299.969   -249.089    110.522     13.044
2010   4   5  16   7   0     68.845    299.969   -248.131    110.046     12.970
2010   4   5  16   8   0     68.845    299.969   -247.575    109.582     13.153
2010   4   5  16   9   0     68.845    299.969   -247.338    109.334     12.982
2010   4   5  16  10   0     68.845    299.969   -249.227    109.130     14.267
2010   4   5  16  11   0     68.845    299.969   -254.140    109.177     17.323
2010   4   5  16  12   0     68.845    299.969   -252.714    108.818     16.798
2010   4   5  16  13   0     68.845    299.969   -252.910    108.592     17.266
2010   4   5  16  14   0     68.845    299.969   -252.512    108.287     17.536
2010   4   5  16  15   0     68.845    299.969   -249.392    107.751     16.231
2010   4   5  16  16   0     68.845    299.969   -248.337    107.394     16.199
2010   4   5  16  17   0     68.845    299.969   -244.998    106.744     15.150
2010   4   5  16  18   0     68.845    299.969   -241.737    106.129     14.003
2010   4   5  16  19   0     68.845    299.969   -239.510    105.616     13.539
2010   4   5  16  20   0     68.845    299.969   -235.472    104.796     12.540
2010   4   5  16  21   0     68.845    299.969   -234.817    104.617     12.032
2010   4   5  16  22   0     68.845    299.969   -234.930    104.529     11.964
2010   4   5  16  23   0     68.845    299.969   -236.056    104.612     12.351
2010   4   5  16  24   0     68.845    299.969   -235.863    104.549     11.986
2010   4   5  16  25   0     68.845    299.969   -236.336    104.603     11.814
2010   4   5  16  26   0     68.845    299.969   -236.274    104.601     11.323
2010   4   5  16  27   0     68.845    299.969   -236.138    104.562     10.795
2010   4   5  16  28   0     68.845    299.969   -236.184    104.525     10.348
2010   4   5  16  29   0     68.845    299.969   -235.082    104.381      9.058
2010   4   5  16  30   0     68.845    299.969   -234.054    104.271      7.776
2010   4   5  16  31   0     68.845    299.969   -233.248    104.235      6.448
2010   4   5  16  32   0     68.845    299.969   -234.368    104.468      6.210
2010   4   5  16  33   0     68.845    299.969   -234.706    104.582      5.586
2010   4   5  16  34   0     68.845    299.969   -234.519    104.634      4.724
2010   4   5  16  35   0     68.845    299.969   -235.883    105.073      4.168
2010   4   5  16  36   0     68.845    299.969   -234.394    104.854      3.202
2010   4   5  16  37   0     68.845    299.969   -232.761    104.588      2.227
2010   4   5  16  38   0     68.845    299.969   -229.492    104.109      0.286
2010   4   5  16  39   0     68.845    299.969   -226.914    103.642     -1.047
2010   4   5  16  40   0     68.845    299.969   -224.203    103.104     -2.276
2010   4   5  16  41   0     68.845    299.969   -222.114    102.728     -3.434
2010   4   5  16  42   0     68.845    299.969   -219.908    102.272     -4.371
2010   4   5  16  43   0     68.845    299.969   -218.203    101.893     -5.023
2010   4   5  16  44   0     68.845    299.969   -216.674    101.539     -5.628
2010   4   5  16  45   0     68.845    299.969   -215.367    101.189     -6.077
2010   4   5  16  46   0     68.845    299.969   -213.643    100.766     -6.775
2010   4   5  16  47   0     68.845    299.969   -209.523     99.989     -8.963
2010   4   5  16  48   0     68.845    299.969   -203.321     98.834    -12.115
2010   4   5  16  49   0     68.845    299.969   -201.889     98.360    -12.432
2010   4   5  16  50   0     68.845    299.969   -201.795     98.083    -11.867
2010   4   5  16  51   0     68.845    299.969   -198.734     97.400    -13.527
2010   4   5  16  52   0     68.845    299.969   -196.053     96.763    -14.829
2010   4   5  16  53   0     68.845    299.969   -194.242     96.299    -15.784
2010   4   5  16  54   0     68.845    299.969   -192.459     95.830    -16.742
2010   4   5  16  55   0     68.845    299.969   -190.134     95.259    -18.008
2010   4   5  16  56   0     68.845    299.969   -189.038     94.883    -18.365
2010   4   5  16  57   0     68.845    299.969   -186.930     94.325    -19.381
2010   4   5  16  58   0     68.845    299.969   -185.070     93.812    -20.298
2010   4   5  16  59   0     68.845    299.969   -183.173     93.287    -21.101
2010   4   5  17   0   0     68.845    299.969   -181.368     92.782    -21.767
2010   4   5  17   1   0     68.845    299.969   -179.237     92.178    -22.681
2010   4   5  17   2   0     68.845    299.969   -178.717     91.484    -23.211
2010   4   5  17   3   0     68.845    299.969   -181.290     91.667    -22.074
2010   4   5  17   4   0     68.845    299.969   -179.776     91.237    -22.919
2010   4   5  17   5   0     68.845    299.969   -174.767     90.286    -25.465
2010   4   5  17   6   0     68.845    299.969   -175.282     89.827    -25.498
2010   4   5  17   7   0     68.845    299.969   -174.986     89.553    -25.776
2010   4   5  17   8   0     68.845    299.969   -174.203     88.968    -26.323
2010   4   5  17   9   0     68.845    299.969   -171.641     88.004    -27.697
2010   4   5  17  10   0     68.845    299.969   -166.067     86.280    -30.498
2010   4   5  17  11   0     68.845    299.969   -160.564     84.899    -33.054
2010   4   5  17  12   0     68.845    299.969   -158.254     84.313    -34.135
2010   4   5  17  13   0     68.845    299.969   -152.887     82.926    -36.531
2010   4   5  17  14   0     68.845    299.969   -153.180     82.813    -36.559
2010   4   5  17  15   0     68.845    299.969   -149.821     82.360    -37.946
2010   4   5  17  16   0     68.845    299.969   -145.897     81.665    -39.527
2010   4   5  17  17   0     68.845    299.969   -143.132     81.268    -40.603
2010   4   5  17  18   0     68.845    299.969   -138.528     80.495    -42.339
2010   4   5  17  19   0     68.845    299.969   -133.817     79.694    -44.071
2010   4   5  17  20   0     68.845    299.969   -130.458     78.934    -45.314
2010   4   5  17  21   0     68.845    299.969   -126.213     78.035    -46.781
2010   4   5  17  22   0     68.845    299.969   -122.201     77.150    -48.131
2010   4   5  17  23   0     68.845    299.969   -118.435     76.119    -49.390
2010   4   5  17  24   0     68.845    299.969   -114.775     74.866    -50.601
2010   4   5  17  25   0     68.845    299.969   -114.519     74.351    -50.875
2010   4   5  17  26   0     68.845    299.969   -113.007     73.768    -51.441
2010   4   5  17  27   0     68.845    299.969   -110.193     72.682    -52.328
2010   4   5  17  28   0     68.845    299.969   -108.815     71.742    -52.845
2010   4   5  17  29   0     68.845    299.969   -102.488     69.683    -54.394
2010   4   5  17  30   0     68.845    299.969    -99.661     68.073    -55.121
2010   4   5  17  31   0     68.845    299.969    -97.833     66.785    -55.620
2010   4   5  17  32   0     68.845    299.969    -95.382     65.343    -56.194
2010   4   5  17  33   0     68.845    299.969    -93.441     63.880    -56.641
2010   4   5  17  34   0     68.845    299.969    -90.428     62.299    -57.200
2010   4   5  17  35   0     68.845    299.969    -87.888     61.027    -57.649
2010   4   5  17  36   0     68.845    299.969    -84.720     59.492    -58.114
2010   4   5  17  37   0     68.845    299.969    -81.300     57.906    -58.531
2010   4   5  17  38   0     68.845    299.969    -78.433     56.620    -58.856
2010   4   5  17  39   0     68.845    299.969    -76.944     55.940    -59.096
2010   4   5  17  40   0     68.845    299.969    -75.271     55.211    -59.338
2010   4   5  17  41   0     68.845    299.969    -72.967     54.021    -59.542
2010   4   5  17  42   0     68.845    299.969    -69.892     52.854    -59.754
2010   4   5  17  43   0     68.845    299.969    -67.720     52.094    -59.949
2010   4   5  17  44   0     68.845    299.969    -65.443     51.338    -60.123
2010   4   5  17  45   0     68.845    299.969    -63.057     50.533    -60.261
2010   4   5  17  46   0     68.845    299.969    -60.729     49.669    -60.350
2010   4   5  17  47   0     68.845    299.969    -57.628     48.634    -60.362
2010   4   5  17  48   0     68.845    299.969    -53.915     47.500    -60.269
2010   4   5  17  49   0     68.845    299.969    -51.030     46.558    -60.177
2010   4   5  17  50   0     68.845    299.969    -46.638     45.338    -59.846
2010   4   5  17  51   0     68.845    299.969    -43.529     44.517    -59.588
2010   4   5  17  52   0     68.845    299.969    -41.668     44.141    -59.649
2010   4   5  17  53   0     68.845    299.969    -40.530     44.129    -59.859
2010   4   5  17  54   0     68.845    299.969    -39.247     44.159    -60.070
2010   4   5  17  55   0     68.845    299.969    -38.816     44.414    -60.437
2010   4   5  17  56   0     68.845    299.969    -39.171     44.883    -60.940
2010   4   5  17  57   0     68.845    299.969    -39.811     45.456    -61.482
2010   4   5  17  58   0     68.845    299.969    -40.737     46.066    -62.028
2010   4   5  17  59   0     68.845    299.969    -40.404     46.454    -62.407
2010   4   5  18   0   0     68.845    299.969    -39.908     46.863    -62.775
2010   4   5  18   1   0     68.845    299.969    -38.884     46.936    -63.006
2010   4   5  18   2   0     68.845    299.969    -37.310     46.624    -63.082
2010   4   5  18   3   0     68.845    299.969    -36.781     46.628    -63.315
2010   4   5  18   4   0     68.845    299.969    -35.615     46.444    -63.446
2010   4   5  18   5   0     68.845    299.969    -35.449     46.392    -63.682
2010   4   5  18   6   0     68.845    299.969    -34.953     46.444    -63.925
2010   4   5  18   7   0     68.845    299.969    -33.800     46.075    -63.997
2010   4   5  18   8   0     68.845    299.969    -31.614     44.890    -63.725
2010   4   5  18   9   0     68.845    299.969    -29.145     43.731    -63.388
2010   4   5  18  10   0     68.845    299.969    -25.704     42.064    -62.684
2010   4   5  18  11   0     68.845    299.969    -22.319     40.663    -61.970
2010   4   5  18  12   0     68.845    299.969    -19.191     39.533    -61.309
2010   4   5  18  13   0     68.845    299.969    -15.342     38.236    -60.338
2010   4   5  18  14   0     68.845    299.969    -13.276     37.193    -59.738
2010   4   5  18  15   0     68.845    299.969    -10.654     35.998    -58.869
2010   4   5  18  16   0     68.845    299.969     -8.655     35.101    -58.247
2010   4   5  18  17   0     68.845    299.969     -7.996     34.753    -58.261
2010   4   5  18  18   0     68.845    299.969     -7.316     34.350    -58.236
2010   4   5  18  19   0     68.845    299.969     -6.423     33.872    -58.106
2010   4   5  18  20   0     68.845    299.969     -6.019     33.618    -58.242
2010   4   5  18  21   0     68.845    299.969     -5.251     33.099    -58.121
2010   4   5  18  22   0     68.845    299.969     -4.188     32.595    -57.921
2010   4   5  18  23   0     68.845    299.969     -3.568     32.605    -58.159
2010   4   5  18  24   0     68.845    299.969     -2.961     32.433    -58.290
2010   4   5  18  25   0     68.845    299.969     -2.375     32.510    -58.577
2010   4   5  18  26   0     68.845    299.969     -1.915     32.436    -58.810
2010   4   5  18  27   0     68.845    299.969     -1.144     32.085    -58.786
2010   4   5  18  28   0     68.845    299.969     -0.845     31.876    -58.991
2010   4   5  18  29   0     68.845    299.969     -0.536     31.833    -59.289
2010   4   5  18  30   0     68.845    299.969     -0.240     31.876    -59.638
2010   4   5  18  31   0     68.845    299.969      0.137     31.322    -59.623
2010   4   5  18  32   0     68.845    299.969      0.963     30.695    -59.428
2010   4   5  18  33   0     68.845    299.969      2.569     30.076    -58.636
2010   4   5  18  34   0     68.845    299.969      3.515     29.659    -58.247
2010   4   5  18  35   0     68.845    299.969      4.778     29.179    -57.762
2010   4   5  18  36   0     68.845    299.969      5.708     28.840    -57.595
2010   4   5  18  37   0     68.845    299.969      6.958     28.328    -56.955
2010   4   5  18  38   0     68.845    299.969      7.918     27.918    -56.548
2010   4   5  18  39   0     68.845    299.969      9.141     27.463    -56.071
2010   4   5  18  40   0     68.845    299.969     10.267     27.028    -55.622
2010   4   5  18  41   0     68.845    299.969     11.849     26.453    -54.848
2010   4   5  18  42   0     68.845    299.969     13.457     25.875    -54.052
2010   4   5  18  43   0     68.845    299.969     14.984     25.308    -53.278
2010   4   5  18  44   0     68.845    299.969     16.771     24.690    -52.352
2010   4   5  18  45   0     68.845    299.969     18.393     24.077    -51.413
2010   4   5  18  46   0     68.845    299.969     19.440     23.927    -51.642
2010   4   5  18  47   0     68.845    299.969     20.616     23.700    -51.678
2010   4   5  18  48   0     68.845    299.969     21.742     23.435    -51.631
2010   4   5  18  49   0     68.845    299.969     22.526     23.254    -51.847
2010   4   5  18  50   0     68.845    299.969     23.260     23.090    -52.120
2010   4   5  18  51   0     68.845    299.969     24.027     22.834    -52.126
2010   4   5  18  52   0     68.845    299.969     25.705     22.362    -51.455
2010   4   5  18  53   0     68.845    299.969     27.652     21.789    -50.388
2010   4   5  18  54   0     68.845    299.969     28.942     21.351    -49.721
2010   4   5  18  55   0     68.845    299.969     29.949     20.957    -49.216
2010   4   5  18  56   0     68.845    299.969     30.319     20.600    -48.883
2010   4   5  18  57   0     68.845    299.969     30.615     20.447    -49.197
2010   4   5  18  58   0     68.845    299.969     30.958     20.206    -49.167
2010   4   5  18  59   0     68.845    299.969     31.208     20.003    -49.231
2010   4   5  19   0   0     68.845    299.969     31.509     19.827    -49.395
2010   4   5  19   1   0     68.845    299.969     31.993     19.585    -49.361
2010   4   5  19   2   0     68.845    299.969     31.993     19.441    -49.676
2010   4   5  19   3   0     68.845    299.969     31.496     19.431    -50.402
2010   4   5  19   4   0     68.845    299.969     31.540     19.342    -50.802
2010   4   5  19   5   0     68.845    299.969     31.666     19.098    -50.819
2010   4   5  19   6   0     68.845    299.969     31.838     19.112    -51.465
2010   4   5  19   7   0     68.845    299.969     30.667     19.593    -53.363
2010   4   5  19   8   0     68.845    299.969     29.711     20.035    -55.023
2010   4   5  19   9   0     68.845    299.969     29.085     20.342    -56.265
2010   4   5  19  10   0     68.845    299.969     28.591     20.598    -57.309
2010   4   5  19  11   0     68.845    299.969     28.614     20.821    -58.295
2010   4   5  19  12   0     68.845    299.969     28.743     20.882    -58.874
2010   4   5  19  13   0     68.845    299.969     28.897     21.013    -59.686
2010   4   5  19  14   0     68.845    299.969     29.079     21.136    -60.497
2010   4   5  19  15   0     68.845    299.969     29.002     21.409    -61.541
2010   4   5  19  16   0     68.845    299.969     28.822     21.794    -62.826
2010   4   5  19  17   0     68.845    299.969     29.164     21.989    -63.806
2010   4   5  19  18   0     68.845    299.969     30.175     22.028    -64.065
2010   4   5  19  19   0     68.845    299.969     30.976     22.078    -64.225
2010   4   5  19  20   0     68.845    299.969     31.795     22.349    -64.504
2010   4   5  19  21   0     68.845    299.969     32.528     22.249    -64.634
2010   4   5  19  22   0     68.845    299.969     33.688     22.045    -64.498
2010   4   5  19  23   0     68.845    299.969     34.523     21.881    -64.528
2010   4   5  19  24   0     68.845    299.969     35.418     21.752    -64.546
2010   4   5  19  25   0     68.845    299.969     36.392     21.702    -64.570
2010   4   5  19  26   0     68.845    299.969     37.567     21.413    -64.353
2010   4   5  19  27   0     68.845    299.969     38.271     21.258    -64.434
2010   4   5  19  28   0     68.845    299.969     39.080     21.050    -64.437
2010   4   5  19  29   0     68.845    299.969     39.967     20.758    -64.330
2010   4   5  19  30   0     68.845    299.969     40.623     20.513    -64.327
2010   4   5  19  31   0     68.845    299.969     41.234     20.263    -64.330
2010   4   5  19  32   0     68.845    299.969     41.909     20.004    -64.290
2010   4   5  19  33   0     68.845    299.969     42.670     19.773    -64.236
2010   4   5  19  34   0     68.845    299.969     43.414     19.515    -64.180
2010   4   5  19  35   0     68.845    299.969     44.077     19.285    -64.185
2010   4   5  19  36   0     68.845    299.969     44.415     19.170    -64.440
2010   4   5  19  37   0     68.845    299.969     44.654     19.108    -64.782
2010   4   5  19  38   0     68.845    299.969     45.278     18.878    -64.816
2010   4   5  19  39   0     68.845    299.969     45.804     18.634    -64.889
2010   4   5  19  40   0     68.845    299.969     46.180     18.354    -65.018
2010   4   5  19  41   0     68.845    299.969     46.551     18.112    -65.165
2010   4   5  19  42   0     68.845    299.969     46.868     17.908    -65.368
2010   4   5  19  43   0     68.845    299.969     47.327     17.632    -65.470
2010   4   5  19  44   0     68.845    299.969     47.672     17.357    -65.224
2010   4   5  19  45   0     68.845    299.969     48.684     16.760    -64.027
2010   4   5  19  46   0     68.845    299.969     49.375     16.299    -63.074
2010   4   5  19  47   0     68.845    299.969     50.082     15.777    -62.059
2010   4   5  19  48   0     68.845    299.969     50.793     15.095    -60.753
2010   4   5  19  49   0     68.845    299.969     51.242     14.532    -59.813
2010   4   5  19  50   0     68.845    299.969     51.568     14.020    -59.111
2010   4   5  19  51   0     68.845    299.969     52.204     13.289    -58.141
2010   4   5  19  52   0     68.845    299.969     52.830     12.484    -57.160
2010   4   5  19  53   0     68.845    299.969     53.174     11.881    -56.658
2010   4   5  19  54   0     68.845    299.969     53.413     11.368    -56.416
2010   4   5  19  55   0     68.845    299.969     53.611      9.998    -54.688
2010   4   5  19  56   0     68.845    299.969     53.447      8.577    -52.547
2010   4   5  19  57   0     68.845    299.969     52.999      7.352    -50.749
2010   4   5  19  58   0     68.845    299.969     52.851      6.612    -49.728
2010   4   5  19  59   0     68.845    299.969     52.873      6.054    -48.977
2010   4   5  20   0   0     68.845    299.969     53.156      5.576    -48.295
2010   4   5  20   1   0     68.845    299.969     53.493      5.300    -47.990
2010   4   5  20   2   0     68.845    299.969     54.127      5.228    -48.027
2010   4   5  20   3   0     68.845    299.969     54.633      5.604    -48.990
2010   4   5  20   4   0     68.845    299.969     55.256      6.030    -50.020
2010   4   5  20   5   0     68.845    299.969     55.961      6.243    -50.618
2010   4   5  20   6   0     68.845    299.969     56.589      6.659    -51.610
2010   4   5  20   7   0     68.845    299.969     57.154      7.044    -52.534
2010   4   5  20   8   0     68.845    299.969     57.845      7.192    -53.002
2010   4   5  20   9   0     68.845    299.969     58.594      7.257    -53.317
2010   4   5  20  10   0     68.845    299.969     59.569      8.084    -55.073
2010   4   5  20  11   0     68.845    299.969     60.664      8.733    -56.498
2010   4   5  20  12   0     68.845    299.969     62.221      8.910    -57.072
2010   4   5  20  13   0     68.845    299.969     63.339      8.904    -57.292
2010   4   5  20  14   0     68.845    299.969     64.591      8.809    -57.340
2010   4   5  20  15   0     68.845    299.969     65.420      8.966    -57.870
2010   4   5  20  16   0     68.845    299.969     66.284      8.619    -57.441
2010   4   5  20  17   0     68.845    299.969     66.855      8.348    -57.155
2010   4   5  20  18   0     68.845    299.969     67.350      7.838    -56.394
2010   4   5  20  19   0     68.845    299.969     68.033      7.256    -55.462
2010   4   5  20  20   0     68.845    299.969     68.521      6.697    -54.554
2010   4   5  20  21   0     68.845    299.969     69.030      6.206    -53.763
2010   4   5  20  22   0     68.845    299.969     69.491      5.799    -53.136
2010   4   5  20  23   0     68.845    299.969     69.941      5.384    -52.475
2010   4   5  20  24   0     68.845    299.969     70.226      5.071    -52.030
2010   4   5  20  25   0     68.845    299.969     70.867      4.592    -51.180
2010   4   5  20  26   0     68.845    299.969     71.646      4.506    -51.211
2010   4   5  20  27   0     68.845    299.969     72.265      4.577    -51.612
2010   4   5  20  28   0     68.845    299.969     73.078      4.567    -51.819
2010   4   5  20  29   0     68.845    299.969     73.831      4.657    -52.259
2010   4   5  20  30   0     68.845    299.969     74.471      4.849    -52.934
2010   4   5  20  31   0     68.845    299.969     74.795      4.827    -53.128
2010   4   5  20  32   0     68.845    299.969     75.158      4.485    -52.591
2010   4   5  20  33   0     68.845    299.969     75.820      4.016    -51.747
2010   4   5  20  34   0     68.845    299.969     76.372      3.762    -51.383
2010   4   5  20  35   0     68.845    299.969     77.166      3.536    -51.079
2010   4   5  20  36   0     68.845    299.969     77.720      3.270    -50.673
2010   4   5  20  37   0     68.845    299.969     78.141      2.923    -50.061
2010   4   5  20  38   0     68.845    299.969     78.278      2.706    -49.767
2010   4   5  20  39   0     68.845    299.969     78.740      2.343    -49.092
2010   4   5  20  40   0     68.845    299.969     78.498      2.256    -49.092
2010   4   5  20  41   0     68.845    299.969     78.463      2.180    -49.085
2010   4   5  20  42   0     68.845    299.969     77.995      1.701    -47.964
2010   4   5  20  43   0     68.845    299.969     77.927      1.291    -47.034
2010   4   5  20  44   0     68.845    299.969     78.047      0.911    -46.174
2010   4   5  20  45   0     68.845    299.969     78.494      0.526    -45.339
2010   4   5  20  46   0     68.845    299.969     79.129      0.406    -45.269
2010   4   5  20  47   0     68.845    299.969     79.906      0.487    -45.779
2010   4   5  20  48   0     68.845    299.969     80.664      0.709    -46.669
2010   4   5  20  49   0     68.845    299.969     81.144      0.654    -46.767
2010   4   5  20  50   0     68.845    299.969     81.512      0.514    -46.601
2010   4   5  20  51   0     68.845    299.969     81.587      0.107    -45.617
2010   4   5  20  52   0     68.845    299.969     81.987     -0.153    -45.077
2010   4   5  20  53   0     68.845    299.969     82.713     -0.258    -45.030
2010   4   5  20  54   0     68.845    299.969     83.293     -0.270    -45.219
2010   4   5  20  55   0     68.845    299.969     84.070     -0.429    -45.040
2010   4   5  20  56   0     68.845    299.969     84.418     -0.842    -44.031
2010   4   5  20  57   0     68.845    299.969     85.313     -0.941    -44.035
2010   4   5  20  58   0     68.845    299.969     85.623     -1.070    -43.826
2010   4   5  20  59   0     68.845    299.969     85.307     -1.352    -43.011
2010   4   5  21   0   0     68.845    299.969     84.872     -1.570    -42.307
2010   4   5  21   1   0     68.845    299.969     84.704     -1.731    -41.777
2010   4   5  21   2   0     68.845    299.969     83.995     -1.848    -41.125
2010   4   5  21   3   0     68.845    299.969     83.618     -1.900    -40.718
2010   4   5  21   4   0     68.845    299.969     83.990     -1.760    -40.837
2010   4   5  21   5   0     68.845    299.969     84.516     -1.465    -41.367
2010   4   5  21   6   0     68.845    299.969     84.952     -1.453    -42.188
2010   4   5  21   7   0     68.845    299.969     85.646     -1.302    -43.063
2010   4   5  21   8   0     68.845    299.969     85.873     -1.406    -42.612
2010   4   5  21   9   0     68.845    299.969     86.382     -1.075    -43.633
2010   4   5  21  10   0     68.845    299.969     86.904     -0.955    -44.282
2010   4   5  21  11   0     68.845    299.969     87.442     -0.679    -45.007
2010   4   5  21  12   0     68.845    299.969     87.968     -0.532    -45.577
2010   4   5  21  13   0     68.845    299.969     88.495     -0.307    -45.911
2010   4   5  21  14   0     68.845    299.969     88.985     -0.495    -46.131
2010   4   5  21  15   0     68.845    299.969     89.522     -0.409    -46.567
2010   4   5  21  16   0     68.845    299.969     90.045     -0.243    -47.015
2010   4   5  21  17   0     68.845    299.969     90.599     -0.240    -47.336
2010   4   5  21  18   0     68.845    299.969     91.086     -0.176    -47.591
2010   4   5  21  19   0     68.845    299.969     91.626      0.118    -48.100
2010   4   5  21  20   0     68.845    299.969     92.165      0.212    -48.550
2010   4   5  21  21   0     68.845    299.969     92.811      1.052    -49.460
2010   4   5  21  22   0     68.845    299.969     93.478      1.818    -50.612
2010   4   5  21  23   0     68.845    299.969     94.079      2.584    -52.371
2010   4   5  21  24   0     68.845    299.969     94.658      2.842    -52.561
2010   4   5  21  25   0     68.845    299.969     95.183      3.027    -52.785
2010   4   5  21  26   0     68.845    299.969     95.748      3.313    -53.266
2010   4   5  21  27   0     68.845    299.969     96.360      4.098    -54.780
2010   4   5  21  28   0     68.845    299.969     96.869      4.659    -55.999
2010   4   5  21  29   0     68.845    299.969     97.382      5.270    -57.303
2010   4   5  21  30   0     68.845    299.969     97.867      5.759    -58.429
2010   4   5  21  31   0     68.845    299.969     98.341      6.199    -59.482
2010   4   5  21  32   0     68.845    299.969     98.806      6.618    -60.515
2010   4   5  21  33   0     68.845    299.969     99.264      6.980    -61.406
2010   4   5  21  34   0     68.845    299.969     99.701      7.316    -62.313
2010   4   5  21  35   0     68.845    299.969    100.121      7.868    -63.669
2010   4   5  21  36   0     68.845    299.969    100.442      7.731    -64.054
2010   4   5  21  37   0     68.845    299.969    100.768      7.636    -64.713
2010   4   5  21  38   0     68.845    299.969    101.144      7.636    -65.693
2010   4   5  21  39   0     68.845    299.969    101.546      7.585    -66.629
2010   4   5  21  40   0     68.845    299.969    101.974      7.739    -67.767
2010   4   5  21  41   0     68.845    299.969    102.356      7.342    -68.499
2010   4   5  21  42   0     68.845    299.969    102.674      6.198    -67.616
2010   4   5  21  43   0     68.845    299.969    103.418      5.991    -68.200
2010   4   5  21  44   0     68.845    299.969    103.839      6.189    -68.957
2010   4   5  21  45   0     68.845    299.969    104.185      6.220    -69.289
2010   4   5  21  46   0     68.845    299.969    104.242      6.263    -69.029
2010   4   5  21  47   0     68.845    299.969    104.610      6.583    -68.973
2010   4   5  21  48   0     68.845    299.969    104.998      6.705    -68.840
2010   4   5  21  49   0     68.845    299.969    105.435      7.268    -69.004
2010   4   5  21  50   0     68.845    299.969    105.997      8.074    -68.991
2010   4   5  21  51   0     68.845    299.969    106.682      8.652    -69.150
2010   4   5  21  52   0     68.845    299.969    107.404      8.736    -68.974
2010   4   5  21  53   0     68.845    299.969    109.940     10.507    -69.290
2010   4   5  21  54   0     68.845    299.969    111.351     12.019    -69.383
2010   4   5  21  55   0     68.845    299.969    112.437     13.351    -69.422
2010   4   5  21  56   0     68.845    299.969    111.017     12.585    -64.192
2010   4   5  21  57   0     68.845    299.969    110.745     12.217    -59.195
2010   4   5  21  58   0     68.845    299.969    112.782     13.384    -56.806
2010   4   5  21  59   0     68.845    299.969    110.221     13.837    -55.880
2010   4   5  22   0   0     68.845    299.969    109.921     14.054    -53.904
2010   4   5  22   1   0     68.845    299.969    113.206     15.083    -51.663
2010   4   5  22   2   0     68.845    299.969    111.791     15.589    -49.085
2010   4   5  22   3   0     68.845    299.969    114.726     16.499    -46.366
2010   4   5  22   4   0     68.845    299.969    116.718     17.923    -45.368
2010   4   5  22   5   0     68.845    299.969    119.126     19.158    -45.319
2010   4   5  22   6   0     68.845    299.969    122.008     20.820    -44.553
2010   4   5  22   7   0     68.845    299.969    122.624     23.234    -44.120
2010   4   5  22   8   0     68.845    299.969    122.789     24.456    -43.692
2010   4   5  22   9   0     68.845    299.969    123.471     26.796    -43.536
2010   4   5  22  10   0     68.845    299.969    124.370     28.539    -43.444
2010   4   5  22  11   0     68.845    299.969    124.055     27.936    -42.833
2010   4   5  22  12   0     68.845    299.969    124.450     27.881    -43.324
2010   4   5  22  13   0     68.845    299.969    124.773     27.487    -44.100
2010   4   5  22  14   0     68.845    299.969    125.595     27.404    -45.437
2010   4   5  22  15   0     68.845    299.969    126.328     26.991    -46.360
2010   4   5  22  16   0     68.845    299.969    126.573     26.318    -46.869
2010   4   5  22  17   0     68.845    299.969    127.063     25.727    -47.632
2010   4   5  22  18   0     68.845    299.969    127.694     25.051    -48.617
2010   4   5  22  19   0     68.845    299.969    127.530     24.077    -48.683
2010   4   5  22  20   0     68.845    299.969    126.648     23.256    -47.768
2010   4   5  22  21   0     68.845    299.969    126.670     22.525    -47.922
2010   4   5  22  22   0     68.845    299.969    126.623     21.594    -48.013
2010   4   5  22  23   0     68.845    299.969    126.688     20.701    -48.217
2010   4   5  22  24   0     68.845    299.969    126.175     19.508    -47.702
2010   4   5  22  25   0     68.845    299.969    126.161     18.792    -47.716
2010   4   5  22  26   0     68.845    299.969    126.233     18.499    -47.797
2010   4   5  22  27   0     68.845    299.969    126.283     18.003    -47.858
2010   4   5  22  28   0     68.845    299.969    126.305     17.857    -47.860
2010   4   5  22  29   0     68.845    299.969    126.858     17.767    -48.529
2010   4   5  22  30   0     68.845    299.969    127.189     17.571    -48.922
2010   4   5  22  31   0     68.845    299.969    127.543     17.580    -49.873
2010   4   5  22  32   0     68.845    299.969    127.614     17.212    -49.529
2010   4   5  22  33   0     68.845    299.969    127.602     16.848    -49.256
2010   4   5  22  34   0     68.845    299.969    127.895     17.054    -50.261
2010   4   5  22  35   0     68.845    299.969    127.923     17.312    -51.904
2010   4   5  22  36   0     68.845    299.969    127.746     16.836    -51.765
2010   4   5  22  37   0     68.845    299.969    127.709     16.598    -52.075
2010   4   5  22  38   0     68.845    299.969    127.356     16.364    -53.253
2010   4   5  22  39   0     68.845    299.969    127.005     16.259    -55.179
2010   4   5  22  40   0     68.845    299.969    126.596     15.759    -56.604
2010   4   5  22  41   0     68.845    299.969    126.907     15.577    -57.877
2010   4   5  22  42   0     68.845    299.969    127.295     15.794    -60.358
2010   4   5  22  43   0     68.845    299.969    127.443     15.873    -62.005
2010   4   5  22  44   0     68.845    299.969    127.319     15.406    -62.099
2010   4   5  22  45   0     68.845    299.969    127.307     15.072    -62.326
2010   4   5  22  46   0     68.845    299.969    127.353     14.684    -62.088
2010   4   5  22  47   0     68.845    299.969    127.527     14.720    -63.014
2010   4   5  22  48   0     68.845    299.969    127.763     14.711    -63.518
2010   4   5  22  49   0     68.845    299.969    128.005     14.423    -62.875
2010   4   5  22  50   0     68.845    299.969    128.150     13.860    -61.271
2010   4   5  22  51   0     68.845    299.969    128.366     13.808    -61.774
2010   4   5  22  52   0     68.845    299.969    128.522     13.542    -61.609
2010   4   5  22  53   0     68.845    299.969    128.564     12.920    -60.104
2010   4   5  22  54   0     68.845    299.969    128.414     12.185    -58.437
2010   4   5  22  55   0     68.845    299.969    128.286     11.581    -56.769
2010   4   5  22  56   0     68.845    299.969    128.472     11.474    -56.746
2010   4   5  22  57   0     68.845    299.969    128.563     11.449    -55.544
2010   4   5  22  58   0     68.845    299.969    128.881     11.586    -55.153
2010   4   5  22  59   0     68.845    299.969    129.173     11.659    -54.659
2010   4   5  23   0   0     68.845    299.969    129.391     11.658    -53.778
2010   4   5  23   1   0     68.845    299.969    129.364     11.428    -52.761
2010   4   5  23   2   0     68.845    299.969    129.704     11.576    -51.503
2010   4   5  23   3   0     68.845    299.969    129.307     10.989    -51.319
2010   4   5  23   4   0     68.845    299.969    128.751     10.190    -51.082
2010   4   5  23   5   0     68.845    299.969    128.268      9.294    -51.191
2010   4   5  23   6   0     68.845    299.969    127.925      8.467    -51.153
2010   4   5  23   7   0     68.845    299.969    127.830      8.144    -50.928
2010   4   5  23   8   0     68.845    299.969    127.856      7.659    -51.288
2010   4   5  23   9   0     68.845    299.969    128.145      7.697    -51.705
2010   4   5  23  10   0     68.845    299.969    128.465      7.956    -52.006
2010   4   5  23  11   0     68.845    299.969    128.587      8.117    -51.704
2010   4   5  23  12   0     68.845    299.969    128.678      7.979    -51.907
2010   4   5  23  13   0     68.845    299.969    128.659      7.728    -51.912
2010   4   5  23  14   0     68.845    299.969    128.930      7.805    -52.424
2010   4   5  23  15   0     68.845    299.969    129.219      7.765    -53.253
2010   4   5  23  16   0     68.845    299.969    129.920      8.239    -54.828
2010   4   5  23  17   0     68.845    299.969    129.971      7.880    -55.531
2010   4   5  23  18   0     68.845    299.969    130.137      8.092    -55.661
2010   4   5  23  19   0     68.845    299.969    130.395      8.379    -55.960
2010   4   5  23  20   0     68.845    299.969    130.700      8.687    -56.340
2010   4   5  23  21   0     68.845    299.969    131.032      9.009    -56.617
2010   4   5  23  22   0     68.845    299.969    131.322      8.914    -58.454
2010   4   5  23  23   0     68.845    299.969    131.520      9.151    -58.304
2010   4   5  23  24   0     68.845    299.969    131.376      8.860    -58.659
2010   4   5  23  25   0     68.845    299.969    131.152      8.339    -59.128
2010   4   5  23  26   0     68.845    299.969    131.081      7.871    -59.747
2010   4   5  23  27   0     68.845    299.969    131.187      7.727    -60.266
2010   4   5  23  28   0     68.845    299.969    131.310      7.619    -60.832
2010   4   5  23  29   0     68.845    299.969    131.347      7.298    -61.306
2010   4   5  23  30   0     68.845    299.969    131.587      7.231    -61.920
2010   4   5  23  31   0     68.845    299.969    131.681      6.938    -62.242
2010   4   5  23  32   0     68.845    299.969    132.021      7.050    -63.226
2010   4   5  23  33   0     68.845    299.969    132.049      6.862    -63.439
2010   4   5  23  34   0     68.845    299.969    132.183      6.779    -63.944
2010   4   5  23  35   0     68.845    299.969    132.618      6.919    -65.032
2010   4   5  23  36   0     68.845    299.969    133.182      7.219    -66.357
2010   4   5  23  37   0     68.845    299.969    133.301      7.204    -66.328
2010   4   5  23  38   0     68.845    299.969    134.214      7.996    -69.090
2010   4   5  23  39   0     68.845    299.969    134.884      8.614    -70.826
2010   4   5  23  40   0     68.845    299.969    135.151      8.745    -71.662
2010   4   5  23  41   0     68.845    299.969    135.209      8.532    -72.451
2010   4   5  23  42   0     68.845    299.969    135.371      8.457    -73.177
2010   4   5  23  43   0     68.845    299.969    135.561      8.418    -74.364
2010   4   5  23  44   0     68.845    299.969    135.581      8.288    -74.960
2010   4   5  23  45   0     68.845    299.969    135.578      8.211    -75.392
2010   4   5  23  46   0     68.845    299.969    135.470      8.049    -76.161
2010   4   5  23  47   0     68.845    299.969    135.747      8.272    -78.248
2010   4   5  23  48   0     68.845    299.969    136.309      8.699    -80.481
2010   4   5  23  49   0     68.845    299.969    137.034      9.341    -83.634
2010   4   5  23  50   0     68.845    299.969    137.480      9.766    -86.127
2010   4   5  23  51   0     68.845    299.969    137.650      9.906    -88.228
2010   4   5  23  52   0     68.845    299.969    137.495      9.670    -89.164
2010   4   5  23  53   0     68.845    299.969    137.204      9.227    -88.648
2010   4   5  23  54   0     68.845    299.969    137.148      9.005    -88.623
2010   4   5  23  55   0     68.845    299.969    137.640      9.269    -89.520
2010   4   5  23  56   0     68.845    299.969    138.290      9.692    -90.366
2010   4   5  23  57   0     68.845    299.969    138.743      9.983    -89.908
2010   4   5  23  58   0     68.845    299.969    139.407     10.545    -93.294
2010   4   5  23  59   0     68.845    299.969    139.923     10.952    -96.707
2010   4   6   0   0   0     68.845    299.969    140.289     11.209   -100.028
2010   4   6   0   1   0     68.845    299.969    140.560     11.422   -102.725
2010   4   6   0   2   0     68.845    299.969    140.861     11.610   -104.396
2010   4   6   0   3   0     68.845    299.969    141.112     11.777   -106.063
2010   4   6   0   4   0     68.845    299.969    141.100     11.552   -105.953
2010   4   6   0   5   0     68.845    299.969    141.042     11.238   -105.384
2010   4   6   0   6   0     68.845    299.969    141.060     11.062   -105.415
2010   4   6   0   7   0     68.845    299.969    141.026     10.909   -106.275
2010   4   6   0   8   0     68.845    299.969    141.024     10.730   -106.358
2010   4   6   0   9   0     68.845    299.969    140.938     10.487   -106.422
2010   4   6   0  10   0     68.845    299.969    140.881     10.275   -107.026
2010   4   6   0  11   0     68.845    299.969    140.789     10.043   -107.600
2010   4   6   0  12   0     68.845    299.969    140.447      9.655   -109.195
2010   4   6   0  13   0     68.845    299.969    140.783      9.701   -106.879
2010   4   6   0  14   0     68.845    299.969    140.684      9.502   -103.755
2010   4   6   0  15   0     68.845    299.969    140.748      9.534   -102.642
2010   4   6   0  16   0     68.845    299.969    140.607      9.527   -100.971
2010   4   6   0  17   0     68.845    299.969    140.024      9.040    -98.609
