# model: Weimer_deltaB of April 6, 2012
# Station: FRD
# Station location (geographic): glon=      282.630 glat=      38.2010
# Station location (magnetic): mlon=      353.589 mlat=      48.1513
Year Month Day Hour Min Sec GeomagLat GeomagLon B_NorthGeomag B_EastGeomag B_DownGeomag
[year] [month] [day] [hour] [min] [s] [deg] [deg] [nT] [nT] [nT]
2011   8   5   4  31   0     48.151    353.589      8.744      0.723      2.076
2011   8   5   4  32   0     48.151    353.589      8.622      0.782      2.098
2011   8   5   4  33   0     48.151    353.589      8.710      0.730      2.009
2011   8   5   4  34   0     48.151    353.589      8.612      0.783      2.026
2011   8   5   4  35   0     48.151    353.589      8.424      1.170      2.121
2011   8   5   4  36   0     48.151    353.589      8.457      1.366      2.157
2011   8   5   4  37   0     48.151    353.589      8.537      1.324      2.140
2011   8   5   4  38   0     48.151    353.589      8.743      1.183      2.104
2011   8   5   4  39   0     48.151    353.589      8.900      1.033      2.062
2011   8   5   4  40   0     48.151    353.589      9.365      0.722      2.026
2011   8   5   4  41   0     48.151    353.589      9.638      0.556      1.930
2011   8   5   4  42   0     48.151    353.589      9.993      0.305      1.685
2011   8   5   4  43   0     48.151    353.589      9.681      0.303      1.458
2011   8   5   4  44   0     48.151    353.589      9.437      0.340      1.527
2011   8   5   4  45   0     48.151    353.589      9.024      0.434      1.823
2011   8   5   4  46   0     48.151    353.589      9.033      0.326      1.919
2011   8   5   4  47   0     48.151    353.589      9.015      0.252      1.982
2011   8   5   4  48   0     48.151    353.589      8.870      0.158      1.950
2011   8   5   4  49   0     48.151    353.589      8.661      0.268      1.836
2011   8   5   4  50   0     48.151    353.589      9.117      0.029      1.837
2011   8   5   4  51   0     48.151    353.589      9.162     -0.453      1.957
2011   8   5   4  52   0     48.151    353.589      9.257     -0.555      2.139
2011   8   5   4  53   0     48.151    353.589      9.672     -0.532      2.247
2011   8   5   4  54   0     48.151    353.589     10.220     -0.544      2.202
2011   8   5   4  55   0     48.151    353.589     10.333     -0.550      2.256
2011   8   5   4  56   0     48.151    353.589     10.341     -0.444      2.730
2011   8   5   4  57   0     48.151    353.589     10.268     -0.449      2.743
2011   8   5   4  58   0     48.151    353.589     10.298     -0.394      2.722
2011   8   5   4  59   0     48.151    353.589     10.510     -0.382      2.733
2011   8   5   5   0   0     48.151    353.589     10.708     -0.570      3.014
2011   8   5   5   1   0     48.151    353.589     10.652     -0.473      3.049
2011   8   5   5   2   0     48.151    353.589     10.956     -0.425      2.941
2011   8   5   5   3   0     48.151    353.589     11.574     -0.591      2.992
2011   8   5   5   4   0     48.151    353.589     11.863     -0.679      3.043
2011   8   5   5   5   0     48.151    353.589     11.829     -0.608      3.069
2011   8   5   5   6   0     48.151    353.589     11.771     -0.502      3.125
2011   8   5   5   7   0     48.151    353.589     11.708     -0.397      3.182
2011   8   5   5   8   0     48.151    353.589     11.630     -0.308      3.211
2011   8   5   5   9   0     48.151    353.589     11.563     -0.242      3.217
2011   8   5   5  10   0     48.151    353.589     11.516     -0.200      3.204
2011   8   5   5  11   0     48.151    353.589     11.477     -0.169      3.186
2011   8   5   5  12   0     48.151    353.589     11.402     -0.111      3.176
2011   8   5   5  13   0     48.151    353.589     11.349     -0.069      3.160
2011   8   5   5  14   0     48.151    353.589     11.290     -0.026      3.139
2011   8   5   5  15   0     48.151    353.589     11.236     -0.012      3.082
2011   8   5   5  16   0     48.151    353.589     11.103      0.042      3.015
2011   8   5   5  17   0     48.151    353.589     10.864      0.172      2.980
2011   8   5   5  18   0     48.151    353.589     10.649      0.288      2.949
2011   8   5   5  19   0     48.151    353.589     10.435      0.393      2.920
2011   8   5   5  20   0     48.151    353.589     10.284      0.475      2.897
2011   8   5   5  21   0     48.151    353.589     10.137      0.555      2.873
2011   8   5   5  22   0     48.151    353.589     10.016      0.623      2.851
2011   8   5   5  23   0     48.151    353.589      9.997      0.663      2.837
2011   8   5   5  24   0     48.151    353.589     10.016      0.697      2.825
2011   8   5   5  25   0     48.151    353.589     10.064      0.722      2.817
2011   8   5   5  26   0     48.151    353.589     10.195      0.715      2.814
2011   8   5   5  27   0     48.151    353.589     10.341      0.691      2.810
2011   8   5   5  28   0     48.151    353.589     10.428      0.685      2.806
2011   8   5   5  29   0     48.151    353.589     10.535      0.665      2.811
2011   8   5   5  30   0     48.151    353.589     10.636      0.657      2.804
2011   8   5   5  31   0     48.151    353.589     10.658      0.719      2.842
2011   8   5   5  32   0     48.151    353.589     10.663      0.786      2.892
2011   8   5   5  33   0     48.151    353.589     10.637      0.850      2.907
2011   8   5   5  34   0     48.151    353.589     10.588      0.904      2.884
2011   8   5   5  35   0     48.151    353.589     10.525      0.958      2.840
2011   8   5   5  36   0     48.151    353.589     10.478      1.022      2.818
2011   8   5   5  37   0     48.151    353.589     10.430      1.071      2.775
2011   8   5   5  38   0     48.151    353.589     10.385      1.111      2.720
2011   8   5   5  39   0     48.151    353.589     10.330      1.137      2.627
2011   8   5   5  40   0     48.151    353.589     10.150      1.205      2.510
2011   8   5   5  41   0     48.151    353.589      9.889      1.348      2.463
2011   8   5   5  42   0     48.151    353.589      9.481      1.526      2.412
2011   8   5   5  43   0     48.151    353.589      9.146      1.651      2.369
2011   8   5   5  44   0     48.151    353.589      8.856      1.739      2.327
2011   8   5   5  45   0     48.151    353.589      8.591      1.770      2.308
2011   8   5   5  46   0     48.151    353.589      8.477      1.720      2.310
2011   8   5   5  47   0     48.151    353.589      8.628      1.587      2.253
2011   8   5   5  48   0     48.151    353.589      8.540      1.674      2.064
2011   8   5   5  49   0     48.151    353.589      8.170      1.918      1.820
2011   8   5   5  50   0     48.151    353.589      7.716      1.795      1.807
2011   8   5   5  51   0     48.151    353.589      7.562      1.614      1.699
2011   8   5   5  52   0     48.151    353.589      7.596      1.592      1.163
2011   8   5   5  53   0     48.151    353.589      7.391      1.595      1.272
2011   8   5   5  54   0     48.151    353.589      6.530      1.481      1.276
2011   8   5   5  55   0     48.151    353.589      6.297      1.461      1.168
2011   8   5   5  56   0     48.151    353.589      6.456      1.688      1.002
2011   8   5   5  57   0     48.151    353.589      6.389      1.825      0.930
2011   8   5   5  58   0     48.151    353.589      6.287      1.928      0.893
2011   8   5   5  59   0     48.151    353.589      6.188      2.002      0.882
2011   8   5   6   0   0     48.151    353.589      6.121      2.036      0.888
2011   8   5   6   1   0     48.151    353.589      6.059      2.085      0.862
2011   8   5   6   2   0     48.151    353.589      5.993      2.066      0.932
2011   8   5   6   3   0     48.151    353.589      5.964      1.959      1.000
2011   8   5   6   4   0     48.151    353.589      5.847      1.873      1.072
2011   8   5   6   5   0     48.151    353.589      5.652      1.766      1.164
2011   8   5   6   6   0     48.151    353.589      5.856      1.856      1.202
2011   8   5   6   7   0     48.151    353.589      6.412      1.908      1.202
2011   8   5   6   8   0     48.151    353.589      6.869      1.913      1.052
2011   8   5   6   9   0     48.151    353.589      6.800      1.957      1.133
2011   8   5   6  10   0     48.151    353.589      6.719      1.982      1.454
2011   8   5   6  11   0     48.151    353.589      6.765      2.062      1.572
2011   8   5   6  12   0     48.151    353.589      6.906      2.142      1.624
2011   8   5   6  13   0     48.151    353.589      7.125      2.191      1.660
2011   8   5   6  14   0     48.151    353.589      7.402      2.183      1.700
2011   8   5   6  15   0     48.151    353.589      7.650      2.211      1.714
2011   8   5   6  16   0     48.151    353.589      7.933      2.071      1.855
2011   8   5   6  17   0     48.151    353.589      8.099      1.962      1.984
2011   8   5   6  18   0     48.151    353.589      8.081      1.987      1.950
2011   8   5   6  19   0     48.151    353.589      8.084      1.997      1.932
2011   8   5   6  20   0     48.151    353.589      8.131      1.982      1.933
2011   8   5   6  21   0     48.151    353.589      8.209      1.943      1.977
2011   8   5   6  22   0     48.151    353.589      8.128      2.000      1.869
2011   8   5   6  23   0     48.151    353.589      8.087      1.830      1.914
2011   8   5   6  24   0     48.151    353.589      8.092      1.788      1.932
2011   8   5   6  25   0     48.151    353.589      8.206      1.744      1.989
2011   8   5   6  26   0     48.151    353.589      8.249      1.639      2.012
2011   8   5   6  27   0     48.151    353.589      8.379      1.511      2.055
2011   8   5   6  28   0     48.151    353.589      8.407      1.487      2.073
2011   8   5   6  29   0     48.151    353.589      8.406      1.402      2.028
2011   8   5   6  30   0     48.151    353.589      8.442      1.401      2.053
2011   8   5   6  31   0     48.151    353.589      8.492      1.293      1.983
2011   8   5   6  32   0     48.151    353.589      8.620      1.212      1.959
2011   8   5   6  33   0     48.151    353.589      8.689      1.271      2.071
2011   8   5   6  34   0     48.151    353.589      8.791      1.406      2.247
2011   8   5   6  35   0     48.151    353.589      8.883      1.495      2.343
2011   8   5   6  36   0     48.151    353.589      8.951      1.513      2.387
2011   8   5   6  37   0     48.151    353.589      9.040      1.621      2.463
2011   8   5   6  38   0     48.151    353.589      9.069      1.620      2.518
2011   8   5   6  39   0     48.151    353.589      9.186      1.574      2.577
2011   8   5   6  40   0     48.151    353.589      9.220      1.561      2.587
2011   8   5   6  41   0     48.151    353.589      9.193      1.560      2.520
2011   8   5   6  42   0     48.151    353.589      9.104      1.535      2.475
2011   8   5   6  43   0     48.151    353.589      9.153      1.450      2.441
2011   8   5   6  44   0     48.151    353.589      9.170      1.412      2.416
2011   8   5   6  45   0     48.151    353.589      9.253      1.324      2.363
2011   8   5   6  46   0     48.151    353.589      9.272      1.279      2.300
2011   8   5   6  47   0     48.151    353.589      9.318      1.200      2.168
2011   8   5   6  48   0     48.151    353.589      9.458      1.100      1.983
2011   8   5   6  49   0     48.151    353.589      9.604      0.988      1.705
2011   8   5   6  50   0     48.151    353.589      9.664      0.915      1.534
2011   8   5   6  51   0     48.151    353.589      9.719      0.838      1.401
2011   8   5   6  52   0     48.151    353.589      9.763      0.738      1.304
2011   8   5   6  53   0     48.151    353.589      9.748      0.669      1.333
2011   8   5   6  54   0     48.151    353.589      9.666      0.678      1.420
2011   8   5   6  55   0     48.151    353.589      9.544      0.709      1.482
2011   8   5   6  56   0     48.151    353.589      9.289      0.804      1.466
2011   8   5   6  57   0     48.151    353.589      9.037      0.875      1.431
2011   8   5   6  58   0     48.151    353.589      8.885      0.910      1.399
2011   8   5   6  59   0     48.151    353.589      8.820      0.914      1.365
2011   8   5   7   0   0     48.151    353.589      8.458      0.983      1.347
2011   8   5   7   1   0     48.151    353.589      8.258      1.010      1.334
2011   8   5   7   2   0     48.151    353.589      8.228      1.067      1.345
2011   8   5   7   3   0     48.151    353.589      8.217      1.135      1.359
2011   8   5   7   4   0     48.151    353.589      8.136      1.156      1.344
2011   8   5   7   5   0     48.151    353.589      7.980      1.176      1.324
2011   8   5   7   6   0     48.151    353.589      8.007      1.206      1.315
2011   8   5   7   7   0     48.151    353.589      7.982      1.225      1.301
2011   8   5   7   8   0     48.151    353.589      7.978      1.277      1.287
2011   8   5   7   9   0     48.151    353.589      8.093      1.299      1.280
2011   8   5   7  10   0     48.151    353.589      8.158      1.363      1.279
2011   8   5   7  11   0     48.151    353.589      8.246      1.406      1.276
2011   8   5   7  12   0     48.151    353.589      8.318      1.456      1.275
2011   8   5   7  13   0     48.151    353.589      8.371      1.503      1.274
2011   8   5   7  14   0     48.151    353.589      8.556      1.539      1.297
2011   8   5   7  15   0     48.151    353.589      8.900      1.494      1.330
2011   8   5   7  16   0     48.151    353.589      9.182      1.463      1.363
2011   8   5   7  17   0     48.151    353.589      9.319      1.462      1.371
2011   8   5   7  18   0     48.151    353.589      9.495      1.446      1.388
2011   8   5   7  19   0     48.151    353.589      9.546      1.471      1.313
2011   8   5   7  20   0     48.151    353.589      9.555      1.516      1.232
2011   8   5   7  21   0     48.151    353.589      9.573      1.536      1.243
2011   8   5   7  22   0     48.151    353.589      9.581      1.572      1.211
2011   8   5   7  23   0     48.151    353.589      9.638      1.577      1.216
2011   8   5   7  24   0     48.151    353.589      9.636      1.603      1.239
2011   8   5   7  25   0     48.151    353.589      9.752      1.576      1.303
2011   8   5   7  26   0     48.151    353.589      9.761      1.603      1.321
2011   8   5   7  27   0     48.151    353.589      9.569      1.669      1.304
2011   8   5   7  28   0     48.151    353.589      9.203      1.769      1.208
2011   8   5   7  29   0     48.151    353.589      8.788      1.841      1.120
2011   8   5   7  30   0     48.151    353.589      8.570      1.814      1.123
2011   8   5   7  31   0     48.151    353.589      8.664      1.830      1.161
2011   8   5   7  32   0     48.151    353.589      8.593      1.801      1.094
2011   8   5   7  33   0     48.151    353.589      8.539      1.520      0.946
2011   8   5   7  34   0     48.151    353.589      8.554      1.329      0.900
2011   8   5   7  35   0     48.151    353.589      8.912      1.163      0.866
2011   8   5   7  36   0     48.151    353.589      9.229      0.908      0.839
2011   8   5   7  37   0     48.151    353.589      9.312      0.875      0.818
2011   8   5   7  38   0     48.151    353.589      9.425      0.819      0.772
2011   8   5   7  39   0     48.151    353.589      9.547      0.752      0.721
2011   8   5   7  40   0     48.151    353.589      9.647      0.710      0.640
2011   8   5   7  41   0     48.151    353.589      9.749      0.738      0.632
2011   8   5   7  42   0     48.151    353.589      9.805      0.737      0.632
2011   8   5   7  43   0     48.151    353.589      9.885      0.697      0.626
2011   8   5   7  44   0     48.151    353.589      9.942      0.644      0.614
2011   8   5   7  45   0     48.151    353.589      9.885      0.724      0.638
2011   8   5   7  46   0     48.151    353.589      9.820      0.813      0.666
2011   8   5   7  47   0     48.151    353.589      9.896      0.776      0.653
2011   8   5   7  48   0     48.151    353.589      9.940      0.766      0.648
2011   8   5   7  49   0     48.151    353.589      9.885      0.830      0.662
2011   8   5   7  50   0     48.151    353.589      9.787      0.934      0.676
2011   8   5   7  51   0     48.151    353.589      9.707      1.037      0.691
2011   8   5   7  52   0     48.151    353.589      9.785      1.064      0.701
2011   8   5   7  53   0     48.151    353.589      9.853      1.076      0.721
2011   8   5   7  54   0     48.151    353.589      9.862      1.103      0.739
2011   8   5   7  55   0     48.151    353.589      9.813      1.140      0.765
2011   8   5   7  56   0     48.151    353.589      9.761      1.166      0.787
2011   8   5   7  57   0     48.151    353.589      9.687      1.192      0.810
2011   8   5   7  58   0     48.151    353.589      9.640      1.247      0.832
2011   8   5   7  59   0     48.151    353.589      9.580      1.261      0.850
2011   8   5   8   0   0     48.151    353.589      9.516      1.241      0.841
2011   8   5   8   1   0     48.151    353.589      9.601      1.176      0.733
2011   8   5   8   2   0     48.151    353.589      9.713      1.115      0.627
2011   8   5   8   3   0     48.151    353.589      9.791      1.120      0.554
2011   8   5   8   4   0     48.151    353.589      9.909      1.091      0.460
2011   8   5   8   5   0     48.151    353.589      9.970      1.145      0.417
2011   8   5   8   6   0     48.151    353.589     10.079      1.167      0.321
2011   8   5   8   7   0     48.151    353.589     10.179      1.209      0.245
2011   8   5   8   8   0     48.151    353.589     10.215      1.241      0.229
2011   8   5   8   9   0     48.151    353.589     10.198      1.242      0.219
2011   8   5   8  10   0     48.151    353.589     10.223      1.259      0.218
2011   8   5   8  11   0     48.151    353.589     10.179      1.285      0.230
2011   8   5   8  12   0     48.151    353.589     10.194      1.309      0.237
2011   8   5   8  13   0     48.151    353.589     10.237      1.329      0.238
2011   8   5   8  14   0     48.151    353.589     10.310      1.355      0.241
2011   8   5   8  15   0     48.151    353.589     10.374      1.389      0.251
2011   8   5   8  16   0     48.151    353.589     10.458      1.439      0.270
2011   8   5   8  17   0     48.151    353.589     10.532      1.475      0.280
2011   8   5   8  18   0     48.151    353.589     10.596      1.516      0.294
2011   8   5   8  19   0     48.151    353.589     10.648      1.558      0.309
2011   8   5   8  20   0     48.151    353.589     10.685      1.577      0.306
2011   8   5   8  21   0     48.151    353.589     10.884      1.569      0.278
2011   8   5   8  22   0     48.151    353.589     11.014      1.576      0.266
2011   8   5   8  23   0     48.151    353.589     11.183      1.571      0.250
2011   8   5   8  24   0     48.151    353.589     11.344      1.552      0.229
2011   8   5   8  25   0     48.151    353.589     11.420      1.515      0.230
2011   8   5   8  26   0     48.151    353.589     11.497      1.461      0.268
2011   8   5   8  27   0     48.151    353.589     11.582      1.419      0.259
2011   8   5   8  28   0     48.151    353.589     11.668      1.377      0.243
2011   8   5   8  29   0     48.151    353.589     11.744      1.387      0.258
2011   8   5   8  30   0     48.151    353.589     11.818      1.359      0.224
2011   8   5   8  31   0     48.151    353.589     11.885      1.313      0.166
2011   8   5   8  32   0     48.151    353.589     11.949      1.285      0.124
2011   8   5   8  33   0     48.151    353.589     12.039      1.229      0.155
2011   8   5   8  34   0     48.151    353.589     12.155      1.187      0.239
2011   8   5   8  35   0     48.151    353.589     12.342      1.178      0.291
2011   8   5   8  36   0     48.151    353.589     12.443      1.205      0.282
2011   8   5   8  37   0     48.151    353.589     12.509      1.259      0.303
2011   8   5   8  38   0     48.151    353.589     12.453      1.325      0.317
2011   8   5   8  39   0     48.151    353.589     12.478      1.382      0.248
2011   8   5   8  40   0     48.151    353.589     12.500      1.456      0.178
2011   8   5   8  41   0     48.151    353.589     12.548      1.526      0.166
2011   8   5   8  42   0     48.151    353.589     12.617      1.596      0.200
2011   8   5   8  43   0     48.151    353.589     12.684      1.644      0.227
2011   8   5   8  44   0     48.151    353.589     12.760      1.662      0.262
2011   8   5   8  45   0     48.151    353.589     12.862      1.724      0.353
2011   8   5   8  46   0     48.151    353.589     12.972      1.807      0.479
2011   8   5   8  47   0     48.151    353.589     13.169      1.877      0.539
2011   8   5   8  48   0     48.151    353.589     13.306      1.933      0.554
2011   8   5   8  49   0     48.151    353.589     13.418      1.996      0.574
2011   8   5   8  50   0     48.151    353.589     13.520      2.032      0.557
2011   8   5   8  51   0     48.151    353.589     13.638      2.095      0.556
2011   8   5   8  52   0     48.151    353.589     13.694      2.168      0.591
2011   8   5   8  53   0     48.151    353.589     13.770      2.252      0.625
2011   8   5   8  54   0     48.151    353.589     13.812      2.370      0.718
2011   8   5   8  55   0     48.151    353.589     13.853      2.465      0.768
2011   8   5   8  56   0     48.151    353.589     13.793      2.571      0.826
2011   8   5   8  57   0     48.151    353.589     13.717      2.672      0.865
2011   8   5   8  58   0     48.151    353.589     13.716      2.778      0.823
2011   8   5   8  59   0     48.151    353.589     13.730      2.876      0.776
2011   8   5   9   0   0     48.151    353.589     13.738      2.984      0.729
2011   8   5   9   1   0     48.151    353.589     13.765      3.100      0.729
2011   8   5   9   2   0     48.151    353.589     13.789      3.216      0.728
2011   8   5   9   3   0     48.151    353.589     13.795      3.398      0.770
2011   8   5   9   4   0     48.151    353.589     13.752      3.574      0.828
2011   8   5   9   5   0     48.151    353.589     13.795      3.682      0.878
2011   8   5   9   6   0     48.151    353.589     13.673      3.829      0.911
2011   8   5   9   7   0     48.151    353.589     13.949      3.765      0.879
2011   8   5   9   8   0     48.151    353.589     14.121      3.656      0.835
2011   8   5   9   9   0     48.151    353.589     14.264      3.634      0.894
2011   8   5   9  10   0     48.151    353.589     14.386      3.683      0.999
2011   8   5   9  11   0     48.151    353.589     14.576      3.725      1.096
2011   8   5   9  12   0     48.151    353.589     14.769      3.783      1.090
2011   8   5   9  13   0     48.151    353.589     14.872      3.868      1.101
2011   8   5   9  14   0     48.151    353.589     14.947      3.949      1.105
2011   8   5   9  15   0     48.151    353.589     14.990      4.028      1.052
2011   8   5   9  16   0     48.151    353.589     14.969      4.140      1.029
2011   8   5   9  17   0     48.151    353.589     14.960      4.244      1.018
2011   8   5   9  18   0     48.151    353.589     14.954      4.288      1.051
2011   8   5   9  19   0     48.151    353.589     14.995      4.352      1.060
2011   8   5   9  20   0     48.151    353.589     15.067      4.441      1.042
2011   8   5   9  21   0     48.151    353.589     15.166      4.571      1.029
2011   8   5   9  22   0     48.151    353.589     15.329      4.678      1.118
2011   8   5   9  23   0     48.151    353.589     15.481      4.796      1.285
2011   8   5   9  24   0     48.151    353.589     15.528      4.914      1.353
2011   8   5   9  25   0     48.151    353.589     15.571      5.030      1.407
2011   8   5   9  26   0     48.151    353.589     15.595      5.164      1.477
2011   8   5   9  27   0     48.151    353.589     15.583      5.291      1.524
2011   8   5   9  28   0     48.151    353.589     15.681      5.387      1.543
2011   8   5   9  29   0     48.151    353.589     15.744      5.517      1.599
2011   8   5   9  30   0     48.151    353.589     15.662      5.673      1.649
2011   8   5   9  31   0     48.151    353.589     15.669      5.770      1.578
2011   8   5   9  32   0     48.151    353.589     15.687      5.910      1.598
2011   8   5   9  33   0     48.151    353.589     15.689      6.048      1.610
2011   8   5   9  34   0     48.151    353.589     15.697      6.192      1.646
2011   8   5   9  35   0     48.151    353.589     15.696      6.355      1.705
2011   8   5   9  36   0     48.151    353.589     15.720      6.524      1.778
2011   8   5   9  37   0     48.151    353.589     15.740      6.689      1.845
2011   8   5   9  38   0     48.151    353.589     15.752      6.867      1.919
2011   8   5   9  39   0     48.151    353.589     15.776      7.006      1.960
2011   8   5   9  40   0     48.151    353.589     15.788      7.159      2.008
2011   8   5   9  41   0     48.151    353.589     15.735      7.394      2.123
2011   8   5   9  42   0     48.151    353.589     15.702      7.617      2.224
2011   8   5   9  43   0     48.151    353.589     15.490      7.911      2.308
2011   8   5   9  44   0     48.151    353.589     15.239      8.218      2.392
2011   8   5   9  45   0     48.151    353.589     15.057      8.487      2.464
2011   8   5   9  46   0     48.151    353.589     14.940      8.696      2.513
2011   8   5   9  47   0     48.151    353.589     14.871      8.905      2.566
2011   8   5   9  48   0     48.151    353.589     14.755      9.168      2.627
2011   8   5   9  49   0     48.151    353.589     14.691      9.465      2.700
2011   8   5   9  50   0     48.151    353.589     14.380      9.774      2.706
2011   8   5   9  51   0     48.151    353.589     14.300     10.085      2.760
2011   8   5   9  52   0     48.151    353.589     14.238     10.531      2.848
2011   8   5   9  53   0     48.151    353.589     14.426     10.682      2.916
2011   8   5   9  54   0     48.151    353.589     14.608     10.797      2.970
2011   8   5   9  55   0     48.151    353.589     14.888     10.899      3.028
2011   8   5   9  56   0     48.151    353.589     15.252     10.879      3.064
2011   8   5   9  57   0     48.151    353.589     15.433     10.880      3.068
2011   8   5   9  58   0     48.151    353.589     15.534     11.041      3.077
2011   8   5   9  59   0     48.151    353.589     15.669     11.173      3.133
2011   8   5  10   0   0     48.151    353.589     15.789     11.343      3.233
2011   8   5  10   1   0     48.151    353.589     15.880     11.567      3.375
2011   8   5  10   2   0     48.151    353.589     16.105     11.637      3.476
2011   8   5  10   3   0     48.151    353.589     16.422     11.536      3.514
2011   8   5  10   4   0     48.151    353.589     16.618     11.476      3.536
2011   8   5  10   5   0     48.151    353.589     16.570     11.344      3.532
2011   8   5  10   6   0     48.151    353.589     16.475     11.553      3.626
2011   8   5  10   7   0     48.151    353.589     16.530     11.701      3.674
2011   8   5  10   8   0     48.151    353.589     16.546     11.865      3.713
2011   8   5  10   9   0     48.151    353.589     16.531     12.069      3.766
2011   8   5  10  10   0     48.151    353.589     16.531     12.252      3.806
2011   8   5  10  11   0     48.151    353.589     16.529     12.442      3.844
2011   8   5  10  12   0     48.151    353.589     16.533     12.622      3.873
2011   8   5  10  13   0     48.151    353.589     16.663     12.664      3.845
2011   8   5  10  14   0     48.151    353.589     16.781     12.781      3.853
2011   8   5  10  15   0     48.151    353.589     16.876     12.943      3.883
2011   8   5  10  16   0     48.151    353.589     16.958     13.080      3.905
2011   8   5  10  17   0     48.151    353.589     17.029     13.266      3.936
2011   8   5  10  18   0     48.151    353.589     17.067     13.508      3.973
2011   8   5  10  19   0     48.151    353.589     17.084     13.723      4.003
2011   8   5  10  20   0     48.151    353.589     17.082     13.960      4.021
2011   8   5  10  21   0     48.151    353.589     17.058     14.185      4.027
2011   8   5  10  22   0     48.151    353.589     17.037     14.384      4.040
2011   8   5  10  23   0     48.151    353.589     17.009     14.584      4.054
2011   8   5  10  24   0     48.151    353.589     16.893     14.853      4.056
2011   8   5  10  25   0     48.151    353.589     16.834     14.924      3.970
2011   8   5  10  26   0     48.151    353.589     16.826     14.990      3.929
2011   8   5  10  27   0     48.151    353.589     16.810     15.095      3.918
2011   8   5  10  28   0     48.151    353.589     16.820     15.203      3.924
2011   8   5  10  29   0     48.151    353.589     16.833     15.302      3.934
2011   8   5  10  30   0     48.151    353.589     16.801     15.395      3.960
2011   8   5  10  31   0     48.151    353.589     16.757     15.505      4.020
2011   8   5  10  32   0     48.151    353.589     16.717     15.626      4.106
2011   8   5  10  33   0     48.151    353.589     16.754     15.713      4.154
2011   8   5  10  34   0     48.151    353.589     16.741     15.864      4.204
2011   8   5  10  35   0     48.151    353.589     16.839     15.950      4.220
2011   8   5  10  36   0     48.151    353.589     16.908     16.043      4.237
2011   8   5  10  37   0     48.151    353.589     16.889     16.162      4.254
2011   8   5  10  38   0     48.151    353.589     16.808     16.272      4.257
2011   8   5  10  39   0     48.151    353.589     16.794     16.380      4.265
2011   8   5  10  40   0     48.151    353.589     16.927     16.452      4.275
2011   8   5  10  41   0     48.151    353.589     17.080     16.539      4.294
2011   8   5  10  42   0     48.151    353.589     17.258     16.619      4.310
2011   8   5  10  43   0     48.151    353.589     17.290     16.732      4.319
2011   8   5  10  44   0     48.151    353.589     17.313     16.835      4.319
2011   8   5  10  45   0     48.151    353.589     17.488     16.923      4.292
2011   8   5  10  46   0     48.151    353.589     17.622     17.023      4.189
2011   8   5  10  47   0     48.151    353.589     17.740     17.130      4.103
2011   8   5  10  48   0     48.151    353.589     17.839     17.310      4.041
2011   8   5  10  49   0     48.151    353.589     17.932     17.435      3.945
2011   8   5  10  50   0     48.151    353.589     17.969     17.661      3.927
2011   8   5  10  51   0     48.151    353.589     17.977     17.915      3.930
2011   8   5  10  52   0     48.151    353.589     17.984     18.190      3.983
2011   8   5  10  53   0     48.151    353.589     18.107     18.310      4.027
2011   8   5  10  54   0     48.151    353.589     18.211     18.442      4.089
2011   8   5  10  55   0     48.151    353.589     18.258     18.589      4.139
2011   8   5  10  56   0     48.151    353.589     18.281     18.712      4.145
2011   8   5  10  57   0     48.151    353.589     18.277     18.863      4.163
2011   8   5  10  58   0     48.151    353.589     18.250     19.039      4.197
2011   8   5  10  59   0     48.151    353.589     18.214     19.214      4.231
2011   8   5  11   0   0     48.151    353.589     18.177     19.382      4.245
2011   8   5  11   1   0     48.151    353.589     18.135     19.591      4.291
2011   8   5  11   2   0     48.151    353.589     18.084     19.796      4.345
2011   8   5  11   3   0     48.151    353.589     18.047     19.972      4.353
2011   8   5  11   4   0     48.151    353.589     17.997     20.184      4.398
2011   8   5  11   5   0     48.151    353.589     17.950     20.417      4.432
2011   8   5  11   6   0     48.151    353.589     17.883     20.685      4.478
2011   8   5  11   7   0     48.151    353.589     17.853     20.795      4.456
2011   8   5  11   8   0     48.151    353.589     17.827     20.930      4.413
2011   8   5  11   9   0     48.151    353.589     17.813     21.017      4.340
2011   8   5  11  10   0     48.151    353.589     17.789     21.136      4.303
2011   8   5  11  11   0     48.151    353.589     17.773     21.226      4.238
2011   8   5  11  12   0     48.151    353.589     17.754     21.315      4.167
2011   8   5  11  13   0     48.151    353.589     17.727     21.408      4.145
2011   8   5  11  14   0     48.151    353.589     17.723     21.512      4.125
2011   8   5  11  15   0     48.151    353.589     17.745     21.592      4.101
2011   8   5  11  16   0     48.151    353.589     17.769     21.653      4.025
2011   8   5  11  17   0     48.151    353.589     17.789     21.739      3.970
2011   8   5  11  18   0     48.151    353.589     17.760     21.939      4.019
2011   8   5  11  19   0     48.151    353.589     17.721     22.152      4.074
2011   8   5  11  20   0     48.151    353.589     17.714     22.292      4.063
2011   8   5  11  21   0     48.151    353.589     17.768     22.381      4.031
2011   8   5  11  22   0     48.151    353.589     17.665     22.634      4.094
2011   8   5  11  23   0     48.151    353.589     17.645     22.829      4.145
2011   8   5  11  24   0     48.151    353.589     17.583     23.027      4.167
2011   8   5  11  25   0     48.151    353.589     17.523     23.235      4.203
2011   8   5  11  26   0     48.151    353.589     17.437     23.499      4.292
2011   8   5  11  27   0     48.151    353.589     17.379     23.723      4.352
2011   8   5  11  28   0     48.151    353.589     17.311     23.943      4.396
2011   8   5  11  29   0     48.151    353.589     17.250     24.165      4.452
2011   8   5  11  30   0     48.151    353.589     17.185     24.377      4.491
2011   8   5  11  31   0     48.151    353.589     17.118     24.615      4.563
2011   8   5  11  32   0     48.151    353.589     17.049     24.832      4.606
2011   8   5  11  33   0     48.151    353.589     16.980     25.011      4.603
2011   8   5  11  34   0     48.151    353.589     16.907     25.192      4.596
2011   8   5  11  35   0     48.151    353.589     16.836     25.396      4.622
2011   8   5  11  36   0     48.151    353.589     16.758     25.600      4.629
2011   8   5  11  37   0     48.151    353.589     16.707     25.773      4.638
2011   8   5  11  38   0     48.151    353.589     16.658     25.926      4.610
2011   8   5  11  39   0     48.151    353.589     16.597     26.128      4.626
2011   8   5  11  40   0     48.151    353.589     16.541     26.314      4.636
2011   8   5  11  41   0     48.151    353.589     16.470     26.508      4.622
2011   8   5  11  42   0     48.151    353.589     16.376     26.760      4.654
2011   8   5  11  43   0     48.151    353.589     16.245     27.065      4.691
2011   8   5  11  44   0     48.151    353.589     16.115     27.337      4.692
2011   8   5  11  45   0     48.151    353.589     15.976     27.627      4.720
2011   8   5  11  46   0     48.151    353.589     15.784     27.978      4.736
2011   8   5  11  47   0     48.151    353.589     15.588     28.337      4.760
2011   8   5  11  48   0     48.151    353.589     15.457     28.612      4.793
2011   8   5  11  49   0     48.151    353.589     15.342     28.850      4.808
2011   8   5  11  50   0     48.151    353.589     15.245     29.044      4.795
2011   8   5  11  51   0     48.151    353.589     15.187     29.172      4.766
2011   8   5  11  52   0     48.151    353.589     15.053     29.413      4.758
2011   8   5  11  53   0     48.151    353.589     14.974     29.597      4.770
2011   8   5  11  54   0     48.151    353.589     14.949     29.689      4.762
2011   8   5  11  55   0     48.151    353.589     14.882     29.829      4.746
2011   8   5  11  56   0     48.151    353.589     14.817     29.972      4.741
2011   8   5  11  57   0     48.151    353.589     14.748     30.093      4.710
2011   8   5  11  58   0     48.151    353.589     14.726     30.148      4.675
2011   8   5  11  59   0     48.151    353.589     14.675     30.266      4.669
2011   8   5  12   0   0     48.151    353.589     14.597     30.387      4.633
2011   8   5  12   1   0     48.151    353.589     14.553     30.461      4.597
2011   8   5  12   2   0     48.151    353.589     14.540     30.496      4.562
2011   8   5  12   3   0     48.151    353.589     14.510     30.540      4.514
2011   8   5  12   4   0     48.151    353.589     14.512     30.569      4.501
2011   8   5  12   5   0     48.151    353.589     14.463     30.683      4.520
2011   8   5  12   6   0     48.151    353.589     14.320     30.893      4.519
2011   8   5  12   7   0     48.151    353.589     14.198     31.073      4.520
2011   8   5  12   8   0     48.151    353.589     14.037     31.242      4.450
2011   8   5  12   9   0     48.151    353.589     13.821     31.471      4.376
2011   8   5  12  10   0     48.151    353.589     13.634     31.673      4.322
2011   8   5  12  11   0     48.151    353.589     13.443     31.881      4.273
2011   8   5  12  12   0     48.151    353.589     13.292     32.098      4.275
2011   8   5  12  13   0     48.151    353.589     13.086     32.345      4.261
2011   8   5  12  14   0     48.151    353.589     13.003     32.376      4.243
2011   8   5  12  15   0     48.151    353.589     12.921     32.410      4.236
2011   8   5  12  16   0     48.151    353.589     12.822     32.487      4.226
2011   8   5  12  17   0     48.151    353.589     12.711     32.570      4.228
2011   8   5  12  18   0     48.151    353.589     12.606     32.606      4.251
2011   8   5  12  19   0     48.151    353.589     12.490     32.599      4.309
2011   8   5  12  20   0     48.151    353.589     12.369     32.594      4.347
2011   8   5  12  21   0     48.151    353.589     12.241     32.733      4.328
2011   8   5  12  22   0     48.151    353.589     12.127     32.791      4.322
2011   8   5  12  23   0     48.151    353.589     11.986     32.908      4.324
2011   8   5  12  24   0     48.151    353.589     11.835     33.132      4.295
2011   8   5  12  25   0     48.151    353.589     11.689     33.310      4.272
2011   8   5  12  26   0     48.151    353.589     11.515     33.433      4.290
2011   8   5  12  27   0     48.151    353.589     11.338     33.410      4.351
2011   8   5  12  28   0     48.151    353.589     11.193     33.571      4.311
2011   8   5  12  29   0     48.151    353.589     11.026     33.674      4.306
2011   8   5  12  30   0     48.151    353.589     10.857     33.833      4.274
2011   8   5  12  31   0     48.151    353.589     10.708     34.017      4.216
2011   8   5  12  32   0     48.151    353.589     10.551     34.191      4.175
2011   8   5  12  33   0     48.151    353.589     10.398     34.361      4.119
2011   8   5  12  34   0     48.151    353.589     10.231     34.511      4.075
2011   8   5  12  35   0     48.151    353.589     10.127     34.702      3.978
2011   8   5  12  36   0     48.151    353.589     10.006     34.904      3.889
2011   8   5  12  37   0     48.151    353.589      9.869     35.137      3.794
2011   8   5  12  38   0     48.151    353.589      9.742     35.299      3.719
2011   8   5  12  39   0     48.151    353.589      9.620     35.467      3.635
2011   8   5  12  40   0     48.151    353.589      9.472     35.650      3.561
2011   8   5  12  41   0     48.151    353.589      9.296     35.990      3.431
2011   8   5  12  42   0     48.151    353.589      9.099     36.293      3.330
2011   8   5  12  43   0     48.151    353.589      8.993     36.376      3.269
2011   8   5  12  44   0     48.151    353.589      8.940     36.354      3.230
2011   8   5  12  45   0     48.151    353.589      8.924     36.281      3.198
2011   8   5  12  46   0     48.151    353.589      8.896     36.229      3.172
2011   8   5  12  47   0     48.151    353.589      8.884     36.160      3.150
2011   8   5  12  48   0     48.151    353.589      8.865     36.110      3.135
2011   8   5  12  49   0     48.151    353.589      8.873     36.034      3.130
2011   8   5  12  50   0     48.151    353.589      8.721     36.116      3.074
2011   8   5  12  51   0     48.151    353.589      8.560     36.195      3.008
2011   8   5  12  52   0     48.151    353.589      8.432     36.244      2.962
2011   8   5  12  53   0     48.151    353.589      8.369     36.249      2.967
2011   8   5  12  54   0     48.151    353.589      8.269     36.272      2.943
2011   8   5  12  55   0     48.151    353.589      8.225     36.249      2.951
2011   8   5  12  56   0     48.151    353.589      8.072     36.297      2.882
2011   8   5  12  57   0     48.151    353.589      7.983     36.292      2.854
2011   8   5  12  58   0     48.151    353.589      7.875     36.306      2.822
2011   8   5  12  59   0     48.151    353.589      7.798     36.331      2.839
2011   8   5  13   0   0     48.151    353.589      7.627     36.476      2.808
2011   8   5  13   1   0     48.151    353.589      7.473     36.558      2.756
2011   8   5  13   2   0     48.151    353.589      7.304     36.665      2.706
2011   8   5  13   3   0     48.151    353.589      7.119     36.709      2.618
2011   8   5  13   4   0     48.151    353.589      6.909     36.782      2.528
2011   8   5  13   5   0     48.151    353.589      6.670     36.782      2.391
2011   8   5  13   6   0     48.151    353.589      6.413     36.786      2.217
2011   8   5  13   7   0     48.151    353.589      6.182     36.846      2.068
2011   8   5  13   8   0     48.151    353.589      5.781     37.030      1.806
2011   8   5  13   9   0     48.151    353.589      5.404     37.211      1.589
2011   8   5  13  10   0     48.151    353.589      5.084     37.349      1.426
2011   8   5  13  11   0     48.151    353.589      4.804     37.467      1.318
2011   8   5  13  12   0     48.151    353.589      4.584     37.508      1.258
2011   8   5  13  13   0     48.151    353.589      4.567     37.126      1.295
2011   8   5  13  14   0     48.151    353.589      4.515     36.772      1.328
2011   8   5  13  15   0     48.151    353.589      4.430     36.448      1.358
2011   8   5  13  16   0     48.151    353.589      4.292     36.205      1.377
2011   8   5  13  17   0     48.151    353.589      4.141     35.963      1.388
2011   8   5  13  18   0     48.151    353.589      3.993     35.776      1.359
2011   8   5  13  19   0     48.151    353.589      3.880     35.571      1.307
2011   8   5  13  20   0     48.151    353.589      3.770     35.538      1.190
2011   8   5  13  21   0     48.151    353.589      3.635     35.585      1.052
2011   8   5  13  22   0     48.151    353.589      3.407     35.611      0.985
2011   8   5  13  23   0     48.151    353.589      3.193     35.715      0.866
2011   8   5  13  24   0     48.151    353.589      2.861     35.877      0.786
2011   8   5  13  25   0     48.151    353.589      2.688     36.046      0.594
2011   8   5  13  26   0     48.151    353.589      2.486     36.251      0.383
2011   8   5  13  27   0     48.151    353.589      2.147     36.558      0.178
2011   8   5  13  28   0     48.151    353.589      1.792     36.951     -0.095
2011   8   5  13  29   0     48.151    353.589      1.409     37.305     -0.365
2011   8   5  13  30   0     48.151    353.589      0.991     37.625     -0.637
2011   8   5  13  31   0     48.151    353.589      0.691     37.696     -0.842
2011   8   5  13  32   0     48.151    353.589      0.430     37.627     -1.030
2011   8   5  13  33   0     48.151    353.589      0.212     37.492     -1.174
2011   8   5  13  34   0     48.151    353.589      0.070     37.268     -1.207
2011   8   5  13  35   0     48.151    353.589     -0.117     37.131     -1.234
2011   8   5  13  36   0     48.151    353.589     -0.330     37.016     -1.250
2011   8   5  13  37   0     48.151    353.589     -0.553     37.210     -1.337
2011   8   5  13  38   0     48.151    353.589     -0.751     37.395     -1.418
2011   8   5  13  39   0     48.151    353.589     -0.940     37.442     -1.513
2011   8   5  13  40   0     48.151    353.589     -1.510     37.542     -1.745
2011   8   5  13  41   0     48.151    353.589     -1.894     37.547     -1.953
2011   8   5  13  42   0     48.151    353.589     -2.098     37.461     -2.080
2011   8   5  13  43   0     48.151    353.589     -2.289     37.375     -2.210
2011   8   5  13  44   0     48.151    353.589     -2.442     37.269     -2.325
2011   8   5  13  45   0     48.151    353.589     -2.535     37.137     -2.418
2011   8   5  13  46   0     48.151    353.589     -2.720     37.009     -2.529
2011   8   5  13  47   0     48.151    353.589     -2.893     36.885     -2.645
2011   8   5  13  48   0     48.151    353.589     -3.013     36.743     -2.744
2011   8   5  13  49   0     48.151    353.589     -3.087     36.607     -2.844
2011   8   5  13  50   0     48.151    353.589     -3.204     36.452     -2.941
2011   8   5  13  51   0     48.151    353.589     -3.186     36.297     -3.017
2011   8   5  13  52   0     48.151    353.589     -3.331     36.165     -3.135
2011   8   5  13  53   0     48.151    353.589     -3.442     36.028     -3.245
2011   8   5  13  54   0     48.151    353.589     -3.499     35.874     -3.337
2011   8   5  13  55   0     48.151    353.589     -3.398     35.678     -3.367
2011   8   5  13  56   0     48.151    353.589     -3.360     35.478     -3.402
2011   8   5  13  57   0     48.151    353.589     -3.384     35.286     -3.463
2011   8   5  13  58   0     48.151    353.589     -3.590     35.156     -3.622
2011   8   5  13  59   0     48.151    353.589     -3.866     35.052     -3.797
2011   8   5  14   0   0     48.151    353.589     -4.147     34.944     -3.974
2011   8   5  14   1   0     48.151    353.589     -4.421     34.832     -4.147
2011   8   5  14   2   0     48.151    353.589     -4.658     34.716     -4.305
2011   8   5  14   3   0     48.151    353.589     -4.923     34.567     -4.478
2011   8   5  14   4   0     48.151    353.589     -5.263     34.474     -4.681
2011   8   5  14   5   0     48.151    353.589     -5.570     34.375     -4.873
2011   8   5  14   6   0     48.151    353.589     -5.897     34.265     -5.073
2011   8   5  14   7   0     48.151    353.589     -5.937     34.077     -5.157
2011   8   5  14   8   0     48.151    353.589     -6.215     33.961     -5.338
2011   8   5  14   9   0     48.151    353.589     -6.353     33.799     -5.459
2011   8   5  14  10   0     48.151    353.589     -6.588     33.629     -5.633
2011   8   5  14  11   0     48.151    353.589     -6.687     33.449     -5.739
2011   8   5  14  12   0     48.151    353.589     -6.602     33.242     -5.801
2011   8   5  14  13   0     48.151    353.589     -6.139     32.810     -5.750
2011   8   5  14  14   0     48.151    353.589     -5.870     32.344     -5.701
2011   8   5  14  15   0     48.151    353.589     -5.652     31.868     -5.637
2011   8   5  14  16   0     48.151    353.589     -5.440     31.447     -5.548
2011   8   5  14  17   0     48.151    353.589     -5.222     31.155     -5.445
2011   8   5  14  18   0     48.151    353.589     -5.074     30.785     -5.379
2011   8   5  14  19   0     48.151    353.589     -4.867     30.476     -5.294
2011   8   5  14  20   0     48.151    353.589     -4.693     30.075     -5.259
2011   8   5  14  21   0     48.151    353.589     -4.416     29.537     -5.307
2011   8   5  14  22   0     48.151    353.589     -4.260     29.125     -5.375
2011   8   5  14  23   0     48.151    353.589     -3.996     28.649     -5.426
2011   8   5  14  24   0     48.151    353.589     -3.933     28.313     -5.502
2011   8   5  14  25   0     48.151    353.589     -3.905     27.996     -5.575
2011   8   5  14  26   0     48.151    353.589     -4.023     27.783     -5.682
2011   8   5  14  27   0     48.151    353.589     -4.211     27.639     -5.805
2011   8   5  14  28   0     48.151    353.589     -4.459     27.525     -5.952
2011   8   5  14  29   0     48.151    353.589     -4.663     27.367     -6.091
2011   8   5  14  30   0     48.151    353.589     -4.877     27.215     -6.235
2011   8   5  14  31   0     48.151    353.589     -5.120     27.065     -6.396
2011   8   5  14  32   0     48.151    353.589     -5.481     26.978     -6.589
2011   8   5  14  33   0     48.151    353.589     -5.902     26.932     -6.783
2011   8   5  14  34   0     48.151    353.589     -6.560     27.049     -7.012
2011   8   5  14  35   0     48.151    353.589     -6.886     26.964     -7.179
2011   8   5  14  36   0     48.151    353.589     -7.389     26.774     -7.529
2011   8   5  14  37   0     48.151    353.589     -8.153     26.540     -8.061
2011   8   5  14  38   0     48.151    353.589     -8.755     26.582     -8.469
2011   8   5  14  39   0     48.151    353.589     -9.439     26.642     -8.797
2011   8   5  14  40   0     48.151    353.589    -10.044     26.586     -8.924
2011   8   5  14  41   0     48.151    353.589    -10.389     26.249     -9.053
2011   8   5  14  42   0     48.151    353.589    -10.825     26.024     -9.305
2011   8   5  14  43   0     48.151    353.589    -11.309     25.810     -9.543
2011   8   5  14  44   0     48.151    353.589    -11.779     25.608     -9.774
2011   8   5  14  45   0     48.151    353.589    -12.232     25.407     -9.982
2011   8   5  14  46   0     48.151    353.589    -12.644     25.176    -10.213
2011   8   5  14  47   0     48.151    353.589    -12.921     24.874    -10.374
2011   8   5  14  48   0     48.151    353.589    -13.204     24.615    -10.561
2011   8   5  14  49   0     48.151    353.589    -13.081     24.198    -10.536
2011   8   5  14  50   0     48.151    353.589    -13.319     23.930    -10.709
2011   8   5  14  51   0     48.151    353.589    -13.302     23.562    -10.738
2011   8   5  14  52   0     48.151    353.589    -13.316     23.236    -10.811
2011   8   5  14  53   0     48.151    353.589    -13.359     22.897    -10.869
2011   8   5  14  54   0     48.151    353.589    -13.321     22.577    -10.940
2011   8   5  14  55   0     48.151    353.589    -13.320     22.301    -11.070
2011   8   5  14  56   0     48.151    353.589    -13.318     21.997    -11.162
2011   8   5  14  57   0     48.151    353.589    -13.280     21.639    -11.183
2011   8   5  14  58   0     48.151    353.589    -13.295     21.288    -11.211
2011   8   5  14  59   0     48.151    353.589    -13.413     20.980    -11.320
2011   8   5  15   0   0     48.151    353.589    -13.650     20.678    -11.421
2011   8   5  15   1   0     48.151    353.589    -13.736     20.384    -11.567
2011   8   5  15   2   0     48.151    353.589    -13.922     20.096    -11.685
2011   8   5  15   3   0     48.151    353.589    -14.173     19.826    -11.777
2011   8   5  15   4   0     48.151    353.589    -14.649     19.610    -12.011
2011   8   5  15   5   0     48.151    353.589    -14.825     19.320    -12.199
2011   8   5  15   6   0     48.151    353.589    -14.991     19.031    -12.353
2011   8   5  15   7   0     48.151    353.589    -15.176     18.745    -12.511
2011   8   5  15   8   0     48.151    353.589    -15.313     18.441    -12.680
2011   8   5  15   9   0     48.151    353.589    -15.447     18.123    -12.875
2011   8   5  15  10   0     48.151    353.589    -15.479     17.772    -13.077
2011   8   5  15  11   0     48.151    353.589    -15.569     17.433    -13.328
2011   8   5  15  12   0     48.151    353.589    -15.756     17.121    -13.511
2011   8   5  15  13   0     48.151    353.589    -15.845     16.808    -13.764
2011   8   5  15  14   0     48.151    353.589    -15.907     16.469    -13.853
2011   8   5  15  15   0     48.151    353.589    -15.909     16.137    -13.979
2011   8   5  15  16   0     48.151    353.589    -15.981     15.799    -14.056
2011   8   5  15  17   0     48.151    353.589    -15.998     15.459    -14.187
2011   8   5  15  18   0     48.151    353.589    -16.120     15.137    -14.377
2011   8   5  15  19   0     48.151    353.589    -16.216     14.817    -14.545
2011   8   5  15  20   0     48.151    353.589    -16.187     14.477    -14.641
2011   8   5  15  21   0     48.151    353.589    -16.289     14.143    -14.784
2011   8   5  15  22   0     48.151    353.589    -16.349     13.801    -14.905
2011   8   5  15  23   0     48.151    353.589    -16.478     13.468    -15.060
2011   8   5  15  24   0     48.151    353.589    -16.479     13.103    -15.138
2011   8   5  15  25   0     48.151    353.589    -16.441     12.732    -15.166
2011   8   5  15  26   0     48.151    353.589    -16.302     12.380    -15.133
2011   8   5  15  27   0     48.151    353.589    -16.424     12.037    -15.281
2011   8   5  15  28   0     48.151    353.589    -16.587     11.709    -15.395
2011   8   5  15  29   0     48.151    353.589    -16.643     11.345    -15.561
2011   8   5  15  30   0     48.151    353.589    -16.673     10.986    -15.706
2011   8   5  15  31   0     48.151    353.589    -16.688     10.633    -15.828
2011   8   5  15  32   0     48.151    353.589    -16.683     10.283    -15.944
2011   8   5  15  33   0     48.151    353.589    -16.573      9.928    -15.980
2011   8   5  15  34   0     48.151    353.589    -16.465      9.573    -16.004
2011   8   5  15  35   0     48.151    353.589    -16.529      9.222    -16.133
2011   8   5  15  36   0     48.151    353.589    -16.402      8.876    -16.162
2011   8   5  15  37   0     48.151    353.589    -16.401      8.521    -16.251
2011   8   5  15  38   0     48.151    353.589    -16.399      8.166    -16.339
2011   8   5  15  39   0     48.151    353.589    -16.536      7.811    -16.471
2011   8   5  15  40   0     48.151    353.589    -16.803      7.482    -16.648
2011   8   5  15  41   0     48.151    353.589    -17.284      7.153    -16.931
2011   8   5  15  42   0     48.151    353.589    -17.768      6.903    -17.111
2011   8   5  15  43   0     48.151    353.589    -18.279      6.661    -17.300
2011   8   5  15  44   0     48.151    353.589    -18.701      6.351    -17.493
2011   8   5  15  45   0     48.151    353.589    -19.142      5.966    -17.696
2011   8   5  15  46   0     48.151    353.589    -19.564      5.535    -17.881
2011   8   5  15  47   0     48.151    353.589    -20.054      5.099    -18.047
2011   8   5  15  48   0     48.151    353.589    -20.694      4.661    -18.234
2011   8   5  15  49   0     48.151    353.589    -21.693      4.241    -18.554
2011   8   5  15  50   0     48.151    353.589    -22.243      3.585    -18.844
2011   8   5  15  51   0     48.151    353.589    -22.280      2.722    -19.106
2011   8   5  15  52   0     48.151    353.589    -22.369      2.761    -19.485
2011   8   5  15  53   0     48.151    353.589    -22.924      2.905    -19.704
2011   8   5  15  54   0     48.151    353.589    -23.384      2.528    -19.663
2011   8   5  15  55   0     48.151    353.589    -23.694      1.878    -19.602
2011   8   5  15  56   0     48.151    353.589    -23.930      1.346    -19.567
2011   8   5  15  57   0     48.151    353.589    -24.068      0.934    -19.569
2011   8   5  15  58   0     48.151    353.589    -24.181      0.570    -19.576
2011   8   5  15  59   0     48.151    353.589    -24.304      0.160    -19.579
2011   8   5  16   0   0     48.151    353.589    -24.553      0.075    -19.472
2011   8   5  16   1   0     48.151    353.589    -24.762     -0.124    -19.446
2011   8   5  16   2   0     48.151    353.589    -24.690     -0.803    -19.423
2011   8   5  16   3   0     48.151    353.589    -24.660     -1.524    -19.397
2011   8   5  16   4   0     48.151    353.589    -24.678     -2.222    -19.398
2011   8   5  16   5   0     48.151    353.589    -24.788     -2.914    -19.400
2011   8   5  16   6   0     48.151    353.589    -24.898     -3.022    -19.395
2011   8   5  16   7   0     48.151    353.589    -24.875     -2.987    -19.315
2011   8   5  16   8   0     48.151    353.589    -24.532     -2.960    -19.122
2011   8   5  16   9   0     48.151    353.589    -23.795     -3.015    -19.016
2011   8   5  16  10   0     48.151    353.589    -23.328     -3.220    -19.107
2011   8   5  16  11   0     48.151    353.589    -23.074     -3.516    -19.224
2011   8   5  16  12   0     48.151    353.589    -22.774     -3.732    -19.243
2011   8   5  16  13   0     48.151    353.589    -22.564     -3.972    -19.287
2011   8   5  16  14   0     48.151    353.589    -22.360     -4.167    -19.334
2011   8   5  16  15   0     48.151    353.589    -22.247     -4.614    -19.525
2011   8   5  16  16   0     48.151    353.589    -22.119     -5.041    -19.713
2011   8   5  16  17   0     48.151    353.589    -21.990     -5.375    -19.816
2011   8   5  16  18   0     48.151    353.589    -21.886     -5.805    -19.988
2011   8   5  16  19   0     48.151    353.589    -21.763     -6.073    -20.031
2011   8   5  16  20   0     48.151    353.589    -21.686     -6.336    -20.067
2011   8   5  16  21   0     48.151    353.589    -21.857     -6.624    -19.993
2011   8   5  16  22   0     48.151    353.589    -21.994     -6.939    -19.943
2011   8   5  16  23   0     48.151    353.589    -21.915     -7.310    -20.046
2011   8   5  16  24   0     48.151    353.589    -22.102     -7.638    -19.970
2011   8   5  16  25   0     48.151    353.589    -22.393     -7.963    -19.801
2011   8   5  16  26   0     48.151    353.589    -22.559     -8.309    -19.686
2011   8   5  16  27   0     48.151    353.589    -22.647     -8.678    -19.638
2011   8   5  16  28   0     48.151    353.589    -22.718     -9.058    -19.593
2011   8   5  16  29   0     48.151    353.589    -22.746     -9.432    -19.581
2011   8   5  16  30   0     48.151    353.589    -22.747     -9.802    -19.586
2011   8   5  16  31   0     48.151    353.589    -22.703    -10.172    -19.579
2011   8   5  16  32   0     48.151    353.589    -22.705    -10.556    -19.578
2011   8   5  16  33   0     48.151    353.589    -22.626    -10.989    -19.530
2011   8   5  16  34   0     48.151    353.589    -22.614    -11.304    -19.599
2011   8   5  16  35   0     48.151    353.589    -22.515    -11.573    -19.702
2011   8   5  16  36   0     48.151    353.589    -22.508    -11.865    -19.833
2011   8   5  16  37   0     48.151    353.589    -22.301    -12.123    -20.044
2011   8   5  16  38   0     48.151    353.589    -22.036    -12.445    -20.327
2011   8   5  16  39   0     48.151    353.589    -21.718    -12.846    -20.636
2011   8   5  16  40   0     48.151    353.589    -21.116    -13.328    -21.073
2011   8   5  16  41   0     48.151    353.589    -20.706    -13.950    -21.463
2011   8   5  16  42   0     48.151    353.589    -20.683    -14.512    -21.725
2011   8   5  16  43   0     48.151    353.589    -20.776    -15.005    -21.957
2011   8   5  16  44   0     48.151    353.589    -21.002    -15.448    -22.166
2011   8   5  16  45   0     48.151    353.589    -21.062    -15.845    -22.349
2011   8   5  16  46   0     48.151    353.589    -20.841    -16.148    -22.329
2011   8   5  16  47   0     48.151    353.589    -20.885    -16.525    -22.488
2011   8   5  16  48   0     48.151    353.589    -20.986    -16.961    -22.648
2011   8   5  16  49   0     48.151    353.589    -20.909    -17.383    -22.757
2011   8   5  16  50   0     48.151    353.589    -20.912    -17.731    -22.791
2011   8   5  16  51   0     48.151    353.589    -20.765    -18.027    -22.811
2011   8   5  16  52   0     48.151    353.589    -20.758    -18.196    -22.701
2011   8   5  16  53   0     48.151    353.589    -20.463    -18.413    -22.573
2011   8   5  16  54   0     48.151    353.589    -20.127    -18.653    -22.449
2011   8   5  16  55   0     48.151    353.589    -19.799    -18.815    -22.246
2011   8   5  16  56   0     48.151    353.589    -19.555    -18.980    -22.112
2011   8   5  16  57   0     48.151    353.589    -19.384    -19.137    -22.010
2011   8   5  16  58   0     48.151    353.589    -19.439    -19.211    -21.801
2011   8   5  16  59   0     48.151    353.589    -19.473    -19.406    -21.670
2011   8   5  17   0   0     48.151    353.589    -19.315    -19.790    -21.789
2011   8   5  17   1   0     48.151    353.589    -19.134    -20.405    -22.093
2011   8   5  17   2   0     48.151    353.589    -19.276    -20.829    -22.188
2011   8   5  17   3   0     48.151    353.589    -19.368    -21.211    -22.284
2011   8   5  17   4   0     48.151    353.589    -19.546    -21.596    -22.410
2011   8   5  17   5   0     48.151    353.589    -19.814    -21.974    -22.557
2011   8   5  17   6   0     48.151    353.589    -20.074    -22.379    -22.728
2011   8   5  17   7   0     48.151    353.589    -20.165    -22.965    -22.923
2011   8   5  17   8   0     48.151    353.589    -20.142    -23.551    -23.042
2011   8   5  17   9   0     48.151    353.589    -19.935    -24.141    -23.144
2011   8   5  17  10   0     48.151    353.589    -19.539    -24.118    -23.379
2011   8   5  17  11   0     48.151    353.589    -19.419    -24.122    -23.586
2011   8   5  17  12   0     48.151    353.589    -19.550    -24.167    -23.754
2011   8   5  17  13   0     48.151    353.589    -19.731    -24.799    -23.749
2011   8   5  17  14   0     48.151    353.589    -19.739    -25.479    -23.780
2011   8   5  17  15   0     48.151    353.589    -19.564    -25.855    -23.838
2011   8   5  17  16   0     48.151    353.589    -19.341    -26.073    -23.880
2011   8   5  17  17   0     48.151    353.589    -19.165    -26.329    -23.902
2011   8   5  17  18   0     48.151    353.589    -19.072    -26.551    -23.866
2011   8   5  17  19   0     48.151    353.589    -19.009    -26.792    -23.817
2011   8   5  17  20   0     48.151    353.589    -18.932    -26.985    -23.761
2011   8   5  17  21   0     48.151    353.589    -18.812    -27.261    -23.752
2011   8   5  17  22   0     48.151    353.589    -18.720    -27.513    -23.718
2011   8   5  17  23   0     48.151    353.589    -18.613    -27.768    -23.693
2011   8   5  17  24   0     48.151    353.589    -18.528    -28.078    -23.670
2011   8   5  17  25   0     48.151    353.589    -18.465    -28.307    -23.610
2011   8   5  17  26   0     48.151    353.589    -18.373    -28.472    -23.546
2011   8   5  17  27   0     48.151    353.589    -18.178    -28.682    -23.551
2011   8   5  17  28   0     48.151    353.589    -18.103    -28.915    -23.495
2011   8   5  17  29   0     48.151    353.589    -18.076    -29.120    -23.405
2011   8   5  17  30   0     48.151    353.589    -17.993    -29.320    -23.342
2011   8   5  17  31   0     48.151    353.589    -17.897    -29.540    -23.289
2011   8   5  17  32   0     48.151    353.589    -17.802    -29.702    -23.217
2011   8   5  17  33   0     48.151    353.589    -17.667    -29.862    -23.164
2011   8   5  17  34   0     48.151    353.589    -17.478    -29.924    -23.108
2011   8   5  17  35   0     48.151    353.589    -17.243    -29.988    -23.069
2011   8   5  17  36   0     48.151    353.589    -17.024    -30.023    -23.015
2011   8   5  17  37   0     48.151    353.589    -16.839    -30.199    -22.883
2011   8   5  17  38   0     48.151    353.589    -16.708    -30.484    -22.708
2011   8   5  17  39   0     48.151    353.589    -16.570    -30.777    -22.531
2011   8   5  17  40   0     48.151    353.589    -16.415    -30.987    -22.440
2011   8   5  17  41   0     48.151    353.589    -16.290    -31.181    -22.358
2011   8   5  17  42   0     48.151    353.589    -16.286    -31.441    -22.196
2011   8   5  17  43   0     48.151    353.589    -16.209    -31.696    -22.039
2011   8   5  17  44   0     48.151    353.589    -16.121    -31.956    -21.880
2011   8   5  17  45   0     48.151    353.589    -16.015    -32.192    -21.756
2011   8   5  17  46   0     48.151    353.589    -15.974    -32.422    -21.659
2011   8   5  17  47   0     48.151    353.589    -15.816    -32.590    -21.621
2011   8   5  17  48   0     48.151    353.589    -15.571    -32.695    -21.639
2011   8   5  17  49   0     48.151    353.589    -15.403    -32.830    -21.624
2011   8   5  17  50   0     48.151    353.589    -15.275    -32.961    -21.618
2011   8   5  17  51   0     48.151    353.589    -15.112    -33.068    -21.638
2011   8   5  17  52   0     48.151    353.589    -14.938    -33.183    -21.640
2011   8   5  17  53   0     48.151    353.589    -14.774    -33.310    -21.611
2011   8   5  17  54   0     48.151    353.589    -14.624    -33.432    -21.575
2011   8   5  17  55   0     48.151    353.589    -14.483    -33.558    -21.534
2011   8   5  17  56   0     48.151    353.589    -14.337    -33.681    -21.497
2011   8   5  17  57   0     48.151    353.589    -14.114    -33.757    -21.512
2011   8   5  17  58   0     48.151    353.589    -13.982    -33.847    -21.522
2011   8   5  17  59   0     48.151    353.589    -13.881    -33.944    -21.526
2011   8   5  18   0   0     48.151    353.589    -13.822    -34.127    -21.451
2011   8   5  18   1   0     48.151    353.589    -13.629    -34.250    -21.380
2011   8   5  18   2   0     48.151    353.589    -13.486    -34.340    -21.285
2011   8   5  18   3   0     48.151    353.589    -13.348    -34.469    -21.145
2011   8   5  18   4   0     48.151    353.589    -13.238    -34.569    -21.075
2011   8   5  18   5   0     48.151    353.589    -13.074    -34.719    -21.005
2011   8   5  18   6   0     48.151    353.589    -12.895    -34.825    -20.915
2011   8   5  18   7   0     48.151    353.589    -12.761    -34.919    -20.812
2011   8   5  18   8   0     48.151    353.589    -12.640    -35.079    -20.720
2011   8   5  18   9   0     48.151    353.589    -12.520    -35.237    -20.630
2011   8   5  18  10   0     48.151    353.589    -12.375    -35.368    -20.539
2011   8   5  18  11   0     48.151    353.589    -12.186    -35.400    -20.428
2011   8   5  18  12   0     48.151    353.589    -12.091    -35.432    -20.294
2011   8   5  18  13   0     48.151    353.589    -11.995    -35.454    -20.151
2011   8   5  18  14   0     48.151    353.589    -11.897    -35.507    -19.999
2011   8   5  18  15   0     48.151    353.589    -11.787    -35.618    -19.828
2011   8   5  18  16   0     48.151    353.589    -11.694    -35.763    -19.622
2011   8   5  18  17   0     48.151    353.589    -11.640    -35.887    -19.447
2011   8   5  18  18   0     48.151    353.589    -11.555    -36.004    -19.265
2011   8   5  18  19   0     48.151    353.589    -11.508    -36.138    -19.078
2011   8   5  18  20   0     48.151    353.589    -11.481    -36.294    -18.857
2011   8   5  18  21   0     48.151    353.589    -11.482    -36.422    -18.672
2011   8   5  18  22   0     48.151    353.589    -11.391    -36.463    -18.538
2011   8   5  18  23   0     48.151    353.589    -11.381    -36.583    -18.343
2011   8   5  18  24   0     48.151    353.589    -11.384    -36.679    -18.174
2011   8   5  18  25   0     48.151    353.589    -11.388    -36.758    -18.009
2011   8   5  18  26   0     48.151    353.589    -11.445    -36.834    -17.847
2011   8   5  18  27   0     48.151    353.589    -11.444    -36.889    -17.685
2011   8   5  18  28   0     48.151    353.589    -11.464    -36.962    -17.513
2011   8   5  18  29   0     48.151    353.589    -11.500    -37.021    -17.340
2011   8   5  18  30   0     48.151    353.589    -11.539    -37.066    -17.169
2011   8   5  18  31   0     48.151    353.589    -11.601    -37.095    -16.997
2011   8   5  18  32   0     48.151    353.589    -11.602    -37.123    -16.814
2011   8   5  18  33   0     48.151    353.589    -11.796    -37.092    -16.669
2011   8   5  18  34   0     48.151    353.589    -11.849    -37.277    -16.490
2011   8   5  18  35   0     48.151    353.589    -11.889    -37.585    -16.312
2011   8   5  18  36   0     48.151    353.589    -11.743    -37.825    -16.241
2011   8   5  18  37   0     48.151    353.589    -11.623    -38.108    -16.144
2011   8   5  18  38   0     48.151    353.589    -11.853    -38.194    -15.993
2011   8   5  18  39   0     48.151    353.589    -13.120    -38.095    -15.295
2011   8   5  18  40   0     48.151    353.589    -13.941    -38.527    -14.304
2011   8   5  18  41   0     48.151    353.589    -14.008    -39.470    -13.698
2011   8   5  18  42   0     48.151    353.589    -14.868    -40.326    -11.981
2011   8   5  18  43   0     48.151    353.589    -13.763    -41.792    -10.311
2011   8   5  18  44   0     48.151    353.589    -13.436    -42.206     -9.579
2011   8   5  18  45   0     48.151    353.589    -12.704    -42.670     -8.997
2011   8   5  18  46   0     48.151    353.589    -12.673    -43.410     -8.000
2011   8   5  18  47   0     48.151    353.589    -12.305    -43.751     -7.759
2011   8   5  18  48   0     48.151    353.589    -11.999    -44.143     -7.295
2011   8   5  18  49   0     48.151    353.589    -12.164    -44.409     -6.516
2011   8   5  18  50   0     48.151    353.589    -12.212    -44.575     -5.823
2011   8   5  18  51   0     48.151    353.589    -11.902    -45.080     -5.078
2011   8   5  18  52   0     48.151    353.589    -11.276    -45.918     -4.280
2011   8   5  18  53   0     48.151    353.589    -10.831    -46.484     -3.581
2011   8   5  18  54   0     48.151    353.589    -10.872    -46.240     -3.334
2011   8   5  18  55   0     48.151    353.589    -11.411    -45.270     -3.386
2011   8   5  18  56   0     48.151    353.589    -11.130    -45.058     -3.471
2011   8   5  18  57   0     48.151    353.589    -10.543    -45.078     -3.160
2011   8   5  18  58   0     48.151    353.589    -11.608    -44.632     -2.576
2011   8   5  18  59   0     48.151    353.589    -11.640    -43.403     -4.010
2011   8   5  19   0   0     48.151    353.589    -13.703    -41.257     -5.274
2011   8   5  19   1   0     48.151    353.589    -13.995    -40.379     -6.340
2011   8   5  19   2   0     48.151    353.589    -13.406    -39.619     -7.258
2011   8   5  19   3   0     48.151    353.589    -12.806    -38.490     -8.111
2011   8   5  19   4   0     48.151    353.589    -12.130    -37.898     -9.198
2011   8   5  19   5   0     48.151    353.589    -12.355    -36.759     -9.354
2011   8   5  19   6   0     48.151    353.589    -10.702    -36.502     -9.548
2011   8   5  19   7   0     48.151    353.589    -10.400    -36.497     -9.486
2011   8   5  19   8   0     48.151    353.589    -10.414    -36.443     -9.425
2011   8   5  19   9   0     48.151    353.589    -10.330    -36.647     -9.259
2011   8   5  19  10   0     48.151    353.589    -10.020    -37.190     -9.493
2011   8   5  19  11   0     48.151    353.589    -11.382    -36.462     -8.674
2011   8   5  19  12   0     48.151    353.589    -11.006    -37.565     -8.230
2011   8   5  19  13   0     48.151    353.589    -11.318    -37.843     -6.644
2011   8   5  19  14   0     48.151    353.589    -11.435    -39.177     -5.063
2011   8   5  19  15   0     48.151    353.589    -11.593    -40.296     -2.529
2011   8   5  19  16   0     48.151    353.589    -10.980    -41.583     -0.612
2011   8   5  19  17   0     48.151    353.589     -9.437    -43.056      0.723
2011   8   5  19  18   0     48.151    353.589     -8.262    -44.410      2.014
2011   8   5  19  19   0     48.151    353.589     -7.521    -45.253      3.668
2011   8   5  19  20   0     48.151    353.589     -6.472    -45.842      4.826
2011   8   5  19  21   0     48.151    353.589     -5.898    -46.201      5.745
2011   8   5  19  22   0     48.151    353.589     -5.528    -46.609      7.102
2011   8   5  19  23   0     48.151    353.589     -5.188    -47.042      8.693
2011   8   5  19  24   0     48.151    353.589     -4.829    -47.300      9.763
2011   8   5  19  25   0     48.151    353.589     -4.314    -47.661     11.036
2011   8   5  19  26   0     48.151    353.589     -4.266    -47.717     12.143
2011   8   5  19  27   0     48.151    353.589     -4.479    -47.625     13.263
2011   8   5  19  28   0     48.151    353.589     -4.856    -47.403     14.294
2011   8   5  19  29   0     48.151    353.589     -5.238    -47.119     15.559
2011   8   5  19  30   0     48.151    353.589     -5.842    -46.563     16.453
2011   8   5  19  31   0     48.151    353.589     -6.246    -45.999     16.709
2011   8   5  19  32   0     48.151    353.589     -6.783    -45.201     16.925
2011   8   5  19  33   0     48.151    353.589     -7.569    -44.105     17.240
2011   8   5  19  34   0     48.151    353.589     -8.018    -43.137     16.916
2011   8   5  19  35   0     48.151    353.589     -8.785    -41.798     16.717
2011   8   5  19  36   0     48.151    353.589     -9.524    -40.263     16.292
2011   8   5  19  37   0     48.151    353.589    -10.267    -38.624     15.655
2011   8   5  19  38   0     48.151    353.589    -12.384    -36.177     17.296
2011   8   5  19  39   0     48.151    353.589    -13.239    -34.793     18.178
2011   8   5  19  40   0     48.151    353.589    -15.385    -33.774     18.482
2011   8   5  19  41   0     48.151    353.589    -16.688    -34.443     17.752
2011   8   5  19  42   0     48.151    353.589    -17.619    -29.309     28.285
2011   8   5  19  43   0     48.151    353.589    -21.451    -26.516     33.204
2011   8   5  19  44   0     48.151    353.589    -20.643    -30.390     27.881
2011   8   5  19  45   0     48.151    353.589    -17.306    -31.031     20.976
2011   8   5  19  46   0     48.151    353.589    -13.892    -30.390     14.605
2011   8   5  19  47   0     48.151    353.589    -10.037    -28.411      8.946
2011   8   5  19  48   0     48.151    353.589     -6.228    -25.742      4.554
2011   8   5  19  49   0     48.151    353.589     -4.774    -25.043      5.748
2011   8   5  19  50   0     48.151    353.589     -3.642    -24.412      7.403
2011   8   5  19  51   0     48.151    353.589     -2.437    -23.899      8.883
2011   8   5  19  52   0     48.151    353.589     -1.388    -23.466     10.900
2011   8   5  19  53   0     48.151    353.589     -0.720    -23.175     11.736
2011   8   5  19  54   0     48.151    353.589     -0.610    -23.026     12.690
2011   8   5  19  55   0     48.151    353.589      0.238    -22.919     12.711
2011   8   5  19  56   0     48.151    353.589     -1.007    -22.790     13.810
2011   8   5  19  57   0     48.151    353.589     -2.782    -22.710     16.394
2011   8   5  19  58   0     48.151    353.589     -4.176    -22.687     18.983
2011   8   5  19  59   0     48.151    353.589     -5.232    -22.703     21.024
2011   8   5  20   0   0     48.151    353.589     -6.186    -22.740     23.198
2011   8   5  20   1   0     48.151    353.589     -7.422    -22.827     25.852
2011   8   5  20   2   0     48.151    353.589     -8.357    -22.892     27.379
2011   8   5  20   3   0     48.151    353.589     -9.011    -22.916     28.616
2011   8   5  20   4   0     48.151    353.589     -9.755    -22.986     30.859
2011   8   5  20   5   0     48.151    353.589    -10.325    -22.985     32.714
2011   8   5  20   6   0     48.151    353.589    -10.982    -22.896     34.813
2011   8   5  20   7   0     48.151    353.589    -11.292    -22.617     34.621
2011   8   5  20   8   0     48.151    353.589    -11.970    -22.410     36.061
2011   8   5  20   9   0     48.151    353.589    -12.132    -22.130     36.661
2011   8   5  20  10   0     48.151    353.589    -12.418    -21.827     36.987
2011   8   5  20  11   0     48.151    353.589    -12.913    -21.575     38.344
2011   8   5  20  12   0     48.151    353.589    -13.096    -21.223     37.702
2011   8   5  20  13   0     48.151    353.589    -13.489    -20.882     36.764
2011   8   5  20  14   0     48.151    353.589    -13.571    -20.510     34.539
2011   8   5  20  15   0     48.151    353.589    -13.650    -20.193     32.253
2011   8   5  20  16   0     48.151    353.589    -13.101    -19.876     29.142
2011   8   5  20  17   0     48.151    353.589    -12.390    -19.611     27.000
2011   8   5  20  18   0     48.151    353.589    -11.853    -19.447     27.370
2011   8   5  20  19   0     48.151    353.589    -10.956    -19.280     25.301
2011   8   5  20  20   0     48.151    353.589     -9.881    -19.159     22.689
2011   8   5  20  21   0     48.151    353.589     -8.627    -19.014     20.850
2011   8   5  20  22   0     48.151    353.589     -7.690    -18.924     20.031
2011   8   5  20  23   0     48.151    353.589     -6.123    -18.965     18.923
2011   8   5  20  24   0     48.151    353.589     -5.205    -19.051     18.184
2011   8   5  20  25   0     48.151    353.589     -6.075    -18.939     20.340
2011   8   5  20  26   0     48.151    353.589     -6.045    -18.852     22.255
2011   8   5  20  27   0     48.151    353.589     -8.785    -18.553     24.247
2011   8   5  20  28   0     48.151    353.589    -11.085    -18.358     27.622
2011   8   5  20  29   0     48.151    353.589    -13.603    -18.251     32.455
2011   8   5  20  30   0     48.151    353.589    -15.652    -18.338     39.116
2011   8   5  20  31   0     48.151    353.589    -23.100    -20.773     52.345
2011   8   5  20  32   0     48.151    353.589    -35.546    -19.381     66.384
2011   8   5  20  33   0     48.151    353.589    -39.557    -10.747     77.765
2011   8   5  20  34   0     48.151    353.589    -30.258    -23.585     51.117
2011   8   5  20  35   0     48.151    353.589    -18.806    -19.460     45.519
2011   8   5  20  36   0     48.151    353.589    -24.026    -24.487     52.359
2011   8   5  20  37   0     48.151    353.589    -29.392    -32.088     61.464
2011   8   5  20  38   0     48.151    353.589    -25.233    -26.981    109.497
2011   8   5  20  39   0     48.151    353.589    -22.099    -28.409    112.183
2011   8   5  20  40   0     48.151    353.589    -23.459    -34.697     67.590
2011   8   5  20  41   0     48.151    353.589    -20.921    -35.631     58.866
2011   8   5  20  42   0     48.151    353.589    -17.218    -24.703     48.835
2011   8   5  20  43   0     48.151    353.589    -14.873    -21.181     43.142
2011   8   5  20  44   0     48.151    353.589    -13.774    -18.287     38.116
2011   8   5  20  45   0     48.151    353.589     -2.309    -22.536     27.520
2011   8   5  20  46   0     48.151    353.589     -3.459    -17.397     27.091
2011   8   5  20  47   0     48.151    353.589     -4.338    -16.371     25.309
2011   8   5  20  48   0     48.151    353.589     -5.147    -13.417     22.647
2011   8   5  20  49   0     48.151    353.589     -5.858    -13.229     19.561
2011   8   5  20  50   0     48.151    353.589     -5.374    -13.418     17.000
2011   8   5  20  51   0     48.151    353.589     -5.553    -16.126     13.795
2011   8   5  20  52   0     48.151    353.589     -5.986    -17.374     11.198
2011   8   5  20  53   0     48.151    353.589     -7.671    -18.438      9.326
2011   8   5  20  54   0     48.151    353.589     -6.734    -21.550     10.676
2011   8   5  20  55   0     48.151    353.589     -4.590    -26.006     13.231
2011   8   5  20  56   0     48.151    353.589     -3.986    -26.545     16.559
2011   8   5  20  57   0     48.151    353.589      1.847    -32.647     15.877
2011   8   5  20  58   0     48.151    353.589     -1.528    -29.345     15.065
2011   8   5  20  59   0     48.151    353.589     -4.450    -27.761     15.767
2011   8   5  21   0   0     48.151    353.589     -2.889    -27.213     14.376
2011   8   5  21   1   0     48.151    353.589     -7.447    -21.534     14.836
2011   8   5  21   2   0     48.151    353.589     -7.848    -20.440     13.727
2011   8   5  21   3   0     48.151    353.589     -7.852    -19.613     11.518
2011   8   5  21   4   0     48.151    353.589     -8.353    -18.874      9.870
2011   8   5  21   5   0     48.151    353.589     -5.187    -17.294      5.408
2011   8   5  21   6   0     48.151    353.589     -1.926    -15.897      6.525
2011   8   5  21   7   0     48.151    353.589     -0.914    -15.228      9.358
2011   8   5  21   8   0     48.151    353.589     -2.687    -13.333     12.691
2011   8   5  21   9   0     48.151    353.589     -4.160    -13.250     20.910
2011   8   5  21  10   0     48.151    353.589     -4.345    -13.752     25.033
2011   8   5  21  11   0     48.151    353.589     -8.552     -7.184     35.208
2011   8   5  21  12   0     48.151    353.589    -18.729    -10.606     40.644
2011   8   5  21  13   0     48.151    353.589    -23.458    -12.565     43.117
2011   8   5  21  14   0     48.151    353.589    -24.341    -14.202     42.258
2011   8   5  21  15   0     48.151    353.589    -22.626    -14.064     44.147
2011   8   5  21  16   0     48.151    353.589    -19.111    -12.800     48.313
2011   8   5  21  17   0     48.151    353.589    -17.281    -12.657     55.418
2011   8   5  21  18   0     48.151    353.589    -15.904    -12.403     58.897
2011   8   5  21  19   0     48.151    353.589    -14.686    -12.070     63.899
2011   8   5  21  20   0     48.151    353.589    -14.934    -11.832     62.608
2011   8   5  21  21   0     48.151    353.589    -15.062    -11.636     61.346
2011   8   5  21  22   0     48.151    353.589    -15.329    -11.445     61.344
2011   8   5  21  23   0     48.151    353.589    -15.913    -11.198     64.850
2011   8   5  21  24   0     48.151    353.589    -16.539    -11.053     69.237
2011   8   5  21  25   0     48.151    353.589    -16.685    -11.062     75.835
2011   8   5  21  26   0     48.151    353.589    -16.434    -11.195     82.493
2011   8   5  21  27   0     48.151    353.589    -15.841    -11.416     89.394
2011   8   5  21  28   0     48.151    353.589    -15.023    -11.723     96.138
2011   8   5  21  29   0     48.151    353.589    -13.730    -12.209    104.353
2011   8   5  21  30   0     48.151    353.589    -12.672    -12.484    110.380
2011   8   5  21  31   0     48.151    353.589    -11.844    -12.684    114.920
2011   8   5  21  32   0     48.151    353.589    -11.448    -12.631    117.333
2011   8   5  21  33   0     48.151    353.589    -10.202    -12.801    123.322
2011   8   5  21  34   0     48.151    353.589     -9.521    -12.726    126.725
2011   8   5  21  35   0     48.151    353.589     -8.722    -12.712    130.431
2011   8   5  21  36   0     48.151    353.589     -7.570    -12.852    135.222
2011   8   5  21  37   0     48.151    353.589     -6.898    -12.860    138.023
2011   8   5  21  38   0     48.151    353.589     -6.976    -12.520    138.227
2011   8   5  21  39   0     48.151    353.589     -7.559    -11.855    136.770
2011   8   5  21  40   0     48.151    353.589     -7.821    -11.302    136.410
2011   8   5  21  41   0     48.151    353.589     -8.037    -10.830    136.172
2011   8   5  21  42   0     48.151    353.589     -8.423    -10.328    135.312
2011   8   5  21  43   0     48.151    353.589     -8.799     -9.820    134.502
2011   8   5  21  44   0     48.151    353.589     -9.204     -9.144    133.616
2011   8   5  21  45   0     48.151    353.589     -9.553     -8.579    132.879
2011   8   5  21  46   0     48.151    353.589     -9.626     -8.027    133.158
2011   8   5  21  47   0     48.151    353.589     -9.328     -7.547    134.805
2011   8   5  21  48   0     48.151    353.589     -9.055     -7.138    136.325
2011   8   5  21  49   0     48.151    353.589     -8.963     -6.779    137.158
2011   8   5  21  50   0     48.151    353.589     -8.625     -6.693    138.897
2011   8   5  21  51   0     48.151    353.589     -8.058     -6.780    141.410
2011   8   5  21  52   0     48.151    353.589     -7.543     -7.104    143.694
2011   8   5  21  53   0     48.151    353.589     -6.650     -8.023    147.021
2011   8   5  21  54   0     48.151    353.589     -5.521     -8.988    150.874
2011   8   5  21  55   0     48.151    353.589     -8.237    -10.568    152.817
2011   8   5  21  56   0     48.151    353.589    -13.330    -11.888    153.848
2011   8   5  21  57   0     48.151    353.589    -18.412    -13.051    154.916
2011   8   5  21  58   0     48.151    353.589    -21.671    -13.597    155.843
2011   8   5  21  59   0     48.151    353.589    -24.357    -14.198    157.073
2011   8   5  22   0   0     48.151    353.589    -25.446    -15.060    159.257
2011   8   5  22   1   0     48.151    353.589    -27.020    -15.749    160.031
2011   8   5  22   2   0     48.151    353.589    -28.113    -16.606    160.170
2011   8   5  22   3   0     48.151    353.589    -26.476    -17.833    161.323
2011   8   5  22   4   0     48.151    353.589    -22.538    -19.280    163.208
2011   8   5  22   5   0     48.151    353.589    -19.138    -20.280    164.143
2011   8   5  22   6   0     48.151    353.589    -18.108    -21.020    162.395
2011   8   5  22   7   0     48.151    353.589    -18.112    -21.246    160.467
2011   8   5  22   8   0     48.151    353.589    -19.414    -20.939    158.799
2011   8   5  22   9   0     48.151    353.589    -20.228    -20.858    156.731
2011   8   5  22  10   0     48.151    353.589    -21.473    -20.508    154.915
2011   8   5  22  11   0     48.151    353.589    -22.062    -20.421    152.602
2011   8   5  22  12   0     48.151    353.589    -22.935    -20.217    149.998
2011   8   5  22  13   0     48.151    353.589    -21.023    -20.811    147.623
2011   8   5  22  14   0     48.151    353.589    -19.449    -21.132    145.928
2011   8   5  22  15   0     48.151    353.589    -17.958    -21.373    144.395
2011   8   5  22  16   0     48.151    353.589    -16.769    -21.472    143.059
2011   8   5  22  17   0     48.151    353.589    -15.772    -21.480    141.874
2011   8   5  22  18   0     48.151    353.589    -14.973    -21.458    140.527
2011   8   5  22  19   0     48.151    353.589    -15.095    -21.432    137.779
2011   8   5  22  20   0     48.151    353.589    -14.889    -21.450    135.323
2011   8   5  22  21   0     48.151    353.589    -15.389    -21.202    133.436
2011   8   5  22  22   0     48.151    353.589    -15.917    -20.950    131.474
2011   8   5  22  23   0     48.151    353.589    -16.307    -20.721    129.497
2011   8   5  22  24   0     48.151    353.589    -17.183    -20.284    127.908
2011   8   5  22  25   0     48.151    353.589    -17.863    -19.834    126.784
2011   8   5  22  26   0     48.151    353.589    -18.499    -19.414    125.645
2011   8   5  22  27   0     48.151    353.589    -19.475    -18.838    124.612
2011   8   5  22  28   0     48.151    353.589    -20.117    -18.293    123.814
2011   8   5  22  29   0     48.151    353.589    -20.211    -18.008    122.090
2011   8   5  22  30   0     48.151    353.589    -20.156    -17.816    119.795
2011   8   5  22  31   0     48.151    353.589    -19.665    -17.847    116.677
2011   8   5  22  32   0     48.151    353.589    -19.333    -17.751    114.043
2011   8   5  22  33   0     48.151    353.589    -18.766    -17.717    111.132
2011   8   5  22  34   0     48.151    353.589    -18.448    -17.526    109.615
2011   8   5  22  35   0     48.151    353.589    -18.118    -17.334    108.161
2011   8   5  22  36   0     48.151    353.589    -17.958    -17.055    107.164
2011   8   5  22  37   0     48.151    353.589    -17.807    -16.796    106.423
2011   8   5  22  38   0     48.151    353.589    -17.631    -16.575    105.871
2011   8   5  22  39   0     48.151    353.589    -17.453    -16.342    105.131
2011   8   5  22  40   0     48.151    353.589    -17.280    -16.105    104.363
2011   8   5  22  41   0     48.151    353.589    -17.353    -15.704    103.935
2011   8   5  22  42   0     48.151    353.589    -17.169    -15.479    103.452
2011   8   5  22  43   0     48.151    353.589    -17.216    -15.103    103.046
2011   8   5  22  44   0     48.151    353.589    -17.001    -14.887    102.295
2011   8   5  22  45   0     48.151    353.589    -17.168    -14.436    102.259
2011   8   5  22  46   0     48.151    353.589    -17.682    -13.769    102.913
2011   8   5  22  47   0     48.151    353.589    -17.914    -13.269    103.083
2011   8   5  22  48   0     48.151    353.589    -18.121    -12.763    103.701
2011   8   5  22  49   0     48.151    353.589    -18.619    -12.108    104.144
2011   8   5  22  50   0     48.151    353.589    -18.996    -11.545    103.892
2011   8   5  22  51   0     48.151    353.589    -19.648    -10.827    103.861
2011   8   5  22  52   0     48.151    353.589    -20.193    -10.163    103.816
2011   8   5  22  53   0     48.151    353.589    -20.839     -9.445    103.673
2011   8   5  22  54   0     48.151    353.589    -21.237     -8.873    103.597
2011   8   5  22  55   0     48.151    353.589    -21.500     -8.383    103.344
2011   8   5  22  56   0     48.151    353.589    -21.280     -8.170    102.458
2011   8   5  22  57   0     48.151    353.589    -21.702     -7.596    102.392
2011   8   5  22  58   0     48.151    353.589    -22.566     -6.784    102.687
2011   8   5  22  59   0     48.151    353.589    -23.982     -5.674    102.482
2011   8   5  23   0   0     48.151    353.589    -25.063     -4.724    102.169
2011   8   5  23   1   0     48.151    353.589    -25.789     -3.976    101.725
2011   8   5  23   2   0     48.151    353.589    -26.504     -3.257    101.413
2011   8   5  23   3   0     48.151    353.589    -27.536     -2.367    101.453
2011   8   5  23   4   0     48.151    353.589    -27.594     -2.064    100.679
2011   8   5  23   5   0     48.151    353.589    -28.392     -1.345    100.749
2011   8   5  23   6   0     48.151    353.589    -28.534     -1.044    100.617
2011   8   5  23   7   0     48.151    353.589    -28.750     -0.673    100.326
2011   8   5  23   8   0     48.151    353.589    -28.680     -0.462     99.726
2011   8   5  23   9   0     48.151    353.589    -28.736     -0.174     99.335
2011   8   5  23  10   0     48.151    353.589    -28.781      0.121     99.066
2011   8   5  23  11   0     48.151    353.589    -29.301      0.704     99.368
2011   8   5  23  12   0     48.151    353.589    -29.632      1.179     99.171
2011   8   5  23  13   0     48.151    353.589    -27.802      0.430     96.355
2011   8   5  23  14   0     48.151    353.589    -24.404     -1.221     92.048
2011   8   5  23  15   0     48.151    353.589    -20.922     -3.006     86.241
2011   8   5  23  16   0     48.151    353.589    -16.491     -4.409     76.650
2011   8   5  23  17   0     48.151    353.589    -11.343     -6.371     69.574
2011   8   5  23  18   0     48.151    353.589     -4.089     -9.048     60.163
2011   8   5  23  19   0     48.151    353.589      1.180    -11.209     52.564
2011   8   5  23  20   0     48.151    353.589      4.437    -13.126     45.143
2011   8   5  23  21   0     48.151    353.589      5.917    -14.535     38.759
2011   8   5  23  22   0     48.151    353.589      4.956    -15.715     32.659
2011   8   5  23  23   0     48.151    353.589      2.392    -16.510     28.263
2011   8   5  23  24   0     48.151    353.589     -1.741    -17.180     25.283
2011   8   5  23  25   0     48.151    353.589     -6.907    -17.765     23.941
2011   8   5  23  26   0     48.151    353.589    -12.711    -18.234     23.991
2011   8   5  23  27   0     48.151    353.589    -19.584    -18.411     25.815
2011   8   5  23  28   0     48.151    353.589    -22.663    -18.368     26.096
2011   8   5  23  29   0     48.151    353.589    -23.621    -18.232     25.474
2011   8   5  23  30   0     48.151    353.589    -25.002    -17.875     23.886
2011   8   5  23  31   0     48.151    353.589    -22.904    -18.094     22.819
2011   8   5  23  32   0     48.151    353.589    -21.092    -18.152     21.663
2011   8   5  23  33   0     48.151    353.589    -19.667    -18.179     20.596
2011   8   5  23  34   0     48.151    353.589    -18.072    -18.144     19.539
2011   8   5  23  35   0     48.151    353.589    -16.216    -18.143     18.763
2011   8   5  23  36   0     48.151    353.589    -14.665    -18.034     18.114
2011   8   5  23  37   0     48.151    353.589    -13.940    -17.875     17.275
2011   8   5  23  38   0     48.151    353.589    -12.957    -17.699     16.698
2011   8   5  23  39   0     48.151    353.589    -12.049    -17.527     16.227
2011   8   5  23  40   0     48.151    353.589    -11.354    -17.327     15.812
2011   8   5  23  41   0     48.151    353.589    -10.785    -17.141     15.456
2011   8   5  23  42   0     48.151    353.589    -10.700    -16.922     15.055
2011   8   5  23  43   0     48.151    353.589    -10.335    -16.800     14.785
2011   8   5  23  44   0     48.151    353.589    -10.328    -16.684     14.362
2011   8   5  23  45   0     48.151    353.589     -9.753    -16.761     14.138
2011   8   5  23  46   0     48.151    353.589    -10.063    -16.693     13.892
2011   8   5  23  47   0     48.151    353.589     -9.086    -16.846     13.384
2011   8   5  23  48   0     48.151    353.589     -8.601    -16.889     13.120
2011   8   5  23  49   0     48.151    353.589     -8.427    -16.896     12.993
2011   8   5  23  50   0     48.151    353.589     -8.319    -16.843     12.905
2011   8   5  23  51   0     48.151    353.589     -8.563    -16.775     12.976
2011   8   5  23  52   0     48.151    353.589     -9.097    -16.665     13.177
2011   8   5  23  53   0     48.151    353.589     -9.352    -16.595     13.255
2011   8   5  23  54   0     48.151    353.589     -9.406    -16.510     13.251
2011   8   5  23  55   0     48.151    353.589     -9.409    -16.444     13.223
2011   8   5  23  56   0     48.151    353.589     -9.167    -16.400     13.098
2011   8   5  23  57   0     48.151    353.589     -9.030    -16.328     13.024
2011   8   5  23  58   0     48.151    353.589     -8.438    -16.267     12.760
2011   8   5  23  59   0     48.151    353.589     -8.700    -16.108     12.855
2011   8   6   0   0   0     48.151    353.589    -13.248    -14.840     13.223
2011   8   6   0   1   0     48.151    353.589    -13.855    -14.681     13.428
2011   8   6   0   2   0     48.151    353.589    -14.446    -14.519     13.618
2011   8   6   0   3   0     48.151    353.589    -14.278    -14.387     13.547
2011   8   6   0   4   0     48.151    353.589    -13.425    -14.327     13.259
2011   8   6   0   5   0     48.151    353.589    -12.559    -14.340     12.962
2011   8   6   0   6   0     48.151    353.589    -11.587    -14.379     12.627
2011   8   6   0   7   0     48.151    353.589    -10.692    -14.408     12.319
2011   8   6   0   8   0     48.151    353.589     -9.569    -14.468     11.926
2011   8   6   0   9   0     48.151    353.589     -8.028    -14.580     11.368
2011   8   6   0  10   0     48.151    353.589     -6.829    -14.619     10.934
2011   8   6   0  11   0     48.151    353.589     -5.458    -14.668     10.425
2011   8   6   0  12   0     48.151    353.589     -3.966    -14.627      9.862
2011   8   6   0  13   0     48.151    353.589     -2.927    -14.642      9.509
2011   8   6   0  14   0     48.151    353.589     -1.902    -14.660      9.224
2011   8   6   0  15   0     48.151    353.589     -0.716    -14.567      8.922
2011   8   6   0  16   0     48.151    353.589      0.410    -14.439      8.713
2011   8   6   0  17   0     48.151    353.589      1.405    -14.306      8.710
2011   8   6   0  18   0     48.151    353.589      2.183    -14.111      8.720
2011   8   6   0  19   0     48.151    353.589      2.900    -13.868      9.324
2011   8   6   0  20   0     48.151    353.589      3.288    -13.564      9.833
2011   8   6   0  21   0     48.151    353.589      3.504    -13.243      9.705
2011   8   6   0  22   0     48.151    353.589      4.333    -12.541      9.667
2011   8   6   0  23   0     48.151    353.589      5.033    -11.968      9.292
2011   8   6   0  24   0     48.151    353.589      5.558    -11.446      8.071
2011   8   6   0  25   0     48.151    353.589      5.074    -10.940      7.758
2011   8   6   0  26   0     48.151    353.589      2.809    -10.549     11.576
2011   8   6   0  27   0     48.151    353.589      0.758    -10.449     11.804
2011   8   6   0  28   0     48.151    353.589     -0.110    -10.395     12.440
2011   8   6   0  29   0     48.151    353.589     -0.967    -10.485     12.967
2011   8   6   0  30   0     48.151    353.589     -4.442     -9.217     14.957
2011   8   6   0  31   0     48.151    353.589     -8.133     -8.500     16.477
2011   8   6   0  32   0     48.151    353.589     -9.208     -8.522     16.257
2011   8   6   0  33   0     48.151    353.589     -8.532     -8.454     15.259
2011   8   6   0  34   0     48.151    353.589     -7.227     -8.457     13.521
2011   8   6   0  35   0     48.151    353.589     -1.482     -7.731     14.696
2011   8   6   0  36   0     48.151    353.589      6.037     -7.838     14.094
2011   8   6   0  37   0     48.151    353.589      9.356     -7.536     13.938
2011   8   6   0  38   0     48.151    353.589      8.397     -6.508     14.985
2011   8   6   0  39   0     48.151    353.589      6.118     -5.410     16.347
2011   8   6   0  40   0     48.151    353.589      1.920     -3.983     18.544
2011   8   6   0  41   0     48.151    353.589     -2.838     -3.246     20.540
2011   8   6   0  42   0     48.151    353.589     -7.996     -0.323     24.182
2011   8   6   0  43   0     48.151    353.589    -12.668      2.874     27.838
2011   8   6   0  44   0     48.151    353.589    -21.137      4.141     31.733
2011   8   6   0  45   0     48.151    353.589    -24.894      6.146     34.454
2011   8   6   0  46   0     48.151    353.589    -27.171      8.159     36.639
2011   8   6   0  47   0     48.151    353.589    -27.967     11.123     38.781
2011   8   6   0  48   0     48.151    353.589    -28.002     14.426     40.688
2011   8   6   0  49   0     48.151    353.589    -29.026     17.397     42.694
2011   8   6   0  50   0     48.151    353.589    -28.762     19.763     43.706
2011   8   6   0  51   0     48.151    353.589    -28.868     22.578     44.918
2011   8   6   0  52   0     48.151    353.589    -29.343     25.238     46.066
2011   8   6   0  53   0     48.151    353.589    -29.777     27.624     46.907
2011   8   6   0  54   0     48.151    353.589    -31.271     30.774     48.290
2011   8   6   0  55   0     48.151    353.589    -31.967     33.716     48.622
2011   8   6   0  56   0     48.151    353.589    -34.141     37.314     49.420
2011   8   6   0  57   0     48.151    353.589    -32.357     37.799     46.485
2011   8   6   0  58   0     48.151    353.589    -29.658     37.146     42.644
2011   8   6   0  59   0     48.151    353.589    -30.979     39.348     41.412
2011   8   6   1   0   0     48.151    353.589    -32.565     41.864     40.520
2011   8   6   1   1   0     48.151    353.589    -37.220     46.942     42.884
2011   8   6   1   2   0     48.151    353.589    -39.671     51.649     44.521
2011   8   6   1   3   0     48.151    353.589    -41.821     55.854     45.254
2011   8   6   1   4   0     48.151    353.589    -45.737     59.160     46.347
2011   8   6   1   5   0     48.151    353.589    -49.881     61.394     48.335
2011   8   6   1   6   0     48.151    353.589    -51.807     60.494     49.670
2011   8   6   1   7   0     48.151    353.589    -49.853     56.300     48.421
2011   8   6   1   8   0     48.151    353.589    -44.538     49.386     45.214
2011   8   6   1   9   0     48.151    353.589    -39.618     43.821     42.820
2011   8   6   1  10   0     48.151    353.589    -36.466     40.565     42.078
2011   8   6   1  11   0     48.151    353.589    -35.260     39.793     42.978
2011   8   6   1  12   0     48.151    353.589    -34.422     39.316     43.124
2011   8   6   1  13   0     48.151    353.589    -33.405     38.710     42.996
2011   8   6   1  14   0     48.151    353.589    -32.725     38.468     43.064
2011   8   6   1  15   0     48.151    353.589    -31.584     37.474     41.796
2011   8   6   1  16   0     48.151    353.589    -30.616     36.868     41.485
2011   8   6   1  17   0     48.151    353.589    -29.613     35.833     39.994
2011   8   6   1  18   0     48.151    353.589    -28.387     34.625     38.079
2011   8   6   1  19   0     48.151    353.589    -27.356     33.757     36.811
2011   8   6   1  20   0     48.151    353.589    -26.277     32.903     34.723
2011   8   6   1  21   0     48.151    353.589    -24.882     31.945     31.443
2011   8   6   1  22   0     48.151    353.589    -26.128     32.980     31.318
2011   8   6   1  23   0     48.151    353.589    -27.497     35.637     30.162
2011   8   6   1  24   0     48.151    353.589    -25.249     36.633     26.521
2011   8   6   1  25   0     48.151    353.589    -23.104     37.237     23.245
2011   8   6   1  26   0     48.151    353.589    -21.378     35.786     21.164
2011   8   6   1  27   0     48.151    353.589    -19.188     34.114     19.251
2011   8   6   1  28   0     48.151    353.589    -17.120     32.748     17.782
2011   8   6   1  29   0     48.151    353.589    -14.845     32.578     15.478
2011   8   6   1  30   0     48.151    353.589    -13.925     32.772     13.988
2011   8   6   1  31   0     48.151    353.589    -10.625     33.758     13.237
2011   8   6   1  32   0     48.151    353.589    -12.236     32.949     13.206
2011   8   6   1  33   0     48.151    353.589    -11.554     31.705     12.569
2011   8   6   1  34   0     48.151    353.589     -7.808     30.068     11.793
2011   8   6   1  35   0     48.151    353.589     -8.772     27.474     11.285
2011   8   6   1  36   0     48.151    353.589     -8.139     27.042     11.101
2011   8   6   1  37   0     48.151    353.589     -3.969     26.174      9.352
2011   8   6   1  38   0     48.151    353.589     -9.438     28.621     11.383
2011   8   6   1  39   0     48.151    353.589     -9.546     29.151     11.438
2011   8   6   1  40   0     48.151    353.589     -9.583     31.649     11.953
2011   8   6   1  41   0     48.151    353.589     -9.799     30.577     11.659
2011   8   6   1  42   0     48.151    353.589    -10.111     29.824     11.509
2011   8   6   1  43   0     48.151    353.589    -10.489     29.352     11.469
2011   8   6   1  44   0     48.151    353.589    -10.678     29.070     11.471
2011   8   6   1  45   0     48.151    353.589     -8.743     28.511     11.023
2011   8   6   1  46   0     48.151    353.589     -9.357     28.783     11.200
2011   8   6   1  47   0     48.151    353.589     -7.157     27.842     10.412
2011   8   6   1  48   0     48.151    353.589     -5.222     26.899      9.571
2011   8   6   1  49   0     48.151    353.589     -3.841     25.845      8.656
2011   8   6   1  50   0     48.151    353.589     -2.964     24.352      7.521
2011   8   6   1  51   0     48.151    353.589     -2.285     23.310      6.942
2011   8   6   1  52   0     48.151    353.589     -1.657     22.987      7.476
2011   8   6   1  53   0     48.151    353.589     -0.737     21.911      7.335
2011   8   6   1  54   0     48.151    353.589     -0.601     21.851      8.472
2011   8   6   1  55   0     48.151    353.589     -1.327     20.928      8.924
2011   8   6   1  56   0     48.151    353.589     -2.314     19.998      8.930
2011   8   6   1  57   0     48.151    353.589     -1.600     19.894      8.657
2011   8   6   1  58   0     48.151    353.589     -0.595     18.831      8.347
2011   8   6   1  59   0     48.151    353.589      0.525     19.172      8.213
2011   8   6   2   0   0     48.151    353.589      1.192     19.973      8.299
2011   8   6   2   1   0     48.151    353.589     -0.885     19.879      8.727
2011   8   6   2   2   0     48.151    353.589     -1.327     19.084      8.790
2011   8   6   2   3   0     48.151    353.589     -1.565     19.004      9.493
2011   8   6   2   4   0     48.151    353.589     -1.326     18.904     10.419
2011   8   6   2   5   0     48.151    353.589     -2.851     18.214      9.216
2011   8   6   2   6   0     48.151    353.589     -3.488     17.417      8.527
2011   8   6   2   7   0     48.151    353.589     -3.125     16.888      8.640
2011   8   6   2   8   0     48.151    353.589     -2.195     16.138      8.659
2011   8   6   2   9   0     48.151    353.589     -0.654     15.566      8.388
2011   8   6   2  10   0     48.151    353.589      0.731     15.169      8.382
2011   8   6   2  11   0     48.151    353.589      1.045     15.676      8.666
2011   8   6   2  12   0     48.151    353.589      1.207     16.400      9.253
2011   8   6   2  13   0     48.151    353.589      1.915     15.986      9.378
2011   8   6   2  14   0     48.151    353.589      2.428     15.187      9.461
2011   8   6   2  15   0     48.151    353.589      2.339     14.767      9.735
2011   8   6   2  16   0     48.151    353.589      2.295     14.774      9.735
2011   8   6   2  17   0     48.151    353.589      2.003     14.799      9.939
2011   8   6   2  18   0     48.151    353.589      2.048     15.129      9.770
2011   8   6   2  19   0     48.151    353.589      1.131     16.712      9.767
2011   8   6   2  20   0     48.151    353.589      0.899     17.475      9.644
2011   8   6   2  21   0     48.151    353.589      0.603     18.216      9.548
2011   8   6   2  22   0     48.151    353.589      0.264     18.917      9.495
2011   8   6   2  23   0     48.151    353.589     -0.411     19.932      9.558
2011   8   6   2  24   0     48.151    353.589     -1.072     20.905      9.612
2011   8   6   2  25   0     48.151    353.589     -1.487     21.570      9.647
2011   8   6   2  26   0     48.151    353.589     -1.186     21.436      9.537
2011   8   6   2  27   0     48.151    353.589     -1.316     21.751      9.501
2011   8   6   2  28   0     48.151    353.589     -1.686     22.287      9.494
2011   8   6   2  29   0     48.151    353.589     -1.527     22.250      9.406
2011   8   6   2  30   0     48.151    353.589     -1.319     22.201      9.336
2011   8   6   2  31   0     48.151    353.589     -0.561     21.603      9.233
2011   8   6   2  32   0     48.151    353.589     -0.060     21.175      9.258
2011   8   6   2  33   0     48.151    353.589      0.477     20.578      9.286
2011   8   6   2  34   0     48.151    353.589      1.374     19.534      9.258
2011   8   6   2  35   0     48.151    353.589      1.584     19.320      9.288
2011   8   6   2  36   0     48.151    353.589      2.186     18.701      9.238
2011   8   6   2  37   0     48.151    353.589      2.717     18.135      9.213
2011   8   6   2  38   0     48.151    353.589      3.146     17.698      9.201
2011   8   6   2  39   0     48.151    353.589      3.850     16.887      9.201
2011   8   6   2  40   0     48.151    353.589      4.334     16.458      9.150
2011   8   6   2  41   0     48.151    353.589      4.879     15.976      9.079
2011   8   6   2  42   0     48.151    353.589      5.823     14.983      8.985
2011   8   6   2  43   0     48.151    353.589      6.260     14.444      9.033
2011   8   6   2  44   0     48.151    353.589      6.695     14.227      8.940
2011   8   6   2  45   0     48.151    353.589      6.898     14.100      8.967
2011   8   6   2  46   0     48.151    353.589      6.772     14.622      8.856
2011   8   6   2  47   0     48.151    353.589      6.751     15.076      8.676
2011   8   6   2  48   0     48.151    353.589      6.674     15.454      8.569
2011   8   6   2  49   0     48.151    353.589      6.375     16.075      8.506
2011   8   6   2  50   0     48.151    353.589      6.269     16.411      8.499
2011   8   6   2  51   0     48.151    353.589      5.993     16.971      8.510
2011   8   6   2  52   0     48.151    353.589      5.739     17.497      8.519
2011   8   6   2  53   0     48.151    353.589      5.397     18.084      8.553
2011   8   6   2  54   0     48.151    353.589      4.774     18.900      8.631
2011   8   6   2  55   0     48.151    353.589      4.184     19.704      8.622
2011   8   6   2  56   0     48.151    353.589      3.540     20.430      8.732
2011   8   6   2  57   0     48.151    353.589      2.812     21.044      8.953
2011   8   6   2  58   0     48.151    353.589      2.636     21.124      9.070
2011   8   6   2  59   0     48.151    353.589      1.767     21.899      9.197
2011   8   6   3   0   0     48.151    353.589      1.698     22.141      9.101
2011   8   6   3   1   0     48.151    353.589      2.321     21.506      9.077
2011   8   6   3   2   0     48.151    353.589      2.189     21.713      9.071
2011   8   6   3   3   0     48.151    353.589      2.012     21.788      9.143
2011   8   6   3   4   0     48.151    353.589      2.979     21.048      8.970
2011   8   6   3   5   0     48.151    353.589      3.442     20.579      8.917
2011   8   6   3   6   0     48.151    353.589      3.556     20.930      8.659
2011   8   6   3   7   0     48.151    353.589      3.508     21.249      8.539
2011   8   6   3   8   0     48.151    353.589      3.708     21.348      8.402
2011   8   6   3   9   0     48.151    353.589      3.809     21.677      8.203
2011   8   6   3  10   0     48.151    353.589      4.353     21.202      8.225
2011   8   6   3  11   0     48.151    353.589      4.617     21.043      8.219
2011   8   6   3  12   0     48.151    353.589      4.768     20.990      8.208
2011   8   6   3  13   0     48.151    353.589      5.040     20.780      8.195
2011   8   6   3  14   0     48.151    353.589      5.368     20.511      8.165
2011   8   6   3  15   0     48.151    353.589      5.588     20.292      8.236
2011   8   6   3  16   0     48.151    353.589      5.502     20.506      8.207
2011   8   6   3  17   0     48.151    353.589      5.945     19.982      8.268
2011   8   6   3  18   0     48.151    353.589      6.087     19.940      8.224
2011   8   6   3  19   0     48.151    353.589      5.657     20.570      8.254
2011   8   6   3  20   0     48.151    353.589      5.525     20.928      8.195
2011   8   6   3  21   0     48.151    353.589      5.692     20.678      8.341
2011   8   6   3  22   0     48.151    353.589      5.784     20.607      8.355
2011   8   6   3  23   0     48.151    353.589      5.754     20.649      8.388
2011   8   6   3  24   0     48.151    353.589      5.819     20.474      8.496
2011   8   6   3  25   0     48.151    353.589      5.648     20.809      8.415
2011   8   6   3  26   0     48.151    353.589      5.689     20.859      8.365
2011   8   6   3  27   0     48.151    353.589      5.504     21.232      8.259
2011   8   6   3  28   0     48.151    353.589      5.226     21.712      8.140
2011   8   6   3  29   0     48.151    353.589      5.485     21.491      8.080
2011   8   6   3  30   0     48.151    353.589      5.757     21.222      7.894
2011   8   6   3  31   0     48.151    353.589      6.000     20.652      7.743
2011   8   6   3  32   0     48.151    353.589      6.130     19.845      7.605
2011   8   6   3  33   0     48.151    353.589      5.806     19.165      7.414
2011   8   6   3  34   0     48.151    353.589      5.264     17.694      6.935
2011   8   6   3  35   0     48.151    353.589      4.608     17.182      6.693
2011   8   6   3  36   0     48.151    353.589      3.426     16.290      6.618
2011   8   6   3  37   0     48.151    353.589      2.055     15.414      6.999
2011   8   6   3  38   0     48.151    353.589      1.049     14.507      7.683
2011   8   6   3  39   0     48.151    353.589      2.574     12.818      7.593
2011   8   6   3  40   0     48.151    353.589      4.731     11.333      7.521
2011   8   6   3  41   0     48.151    353.589      5.903      9.105      8.211
2011   8   6   3  42   0     48.151    353.589      7.499      6.300      6.495
2011   8   6   3  43   0     48.151    353.589      7.920      4.784      5.239
2011   8   6   3  44   0     48.151    353.589      8.643      3.646      5.890
2011   8   6   3  45   0     48.151    353.589      7.833      3.240      5.883
2011   8   6   3  46   0     48.151    353.589      7.577      2.786      5.568
2011   8   6   3  47   0     48.151    353.589      7.629      2.447      5.852
2011   8   6   3  48   0     48.151    353.589      7.998      1.757      5.978
2011   8   6   3  49   0     48.151    353.589      8.075      1.180      6.027
2011   8   6   3  50   0     48.151    353.589      7.622      0.696      5.817
2011   8   6   3  51   0     48.151    353.589      7.638      0.287      5.815
2011   8   6   3  52   0     48.151    353.589      7.626      0.232      5.851
2011   8   6   3  53   0     48.151    353.589      7.370      0.384      5.759
2011   8   6   3  54   0     48.151    353.589      7.062      0.557      5.763
2011   8   6   3  55   0     48.151    353.589      6.758      0.703      5.805
2011   8   6   3  56   0     48.151    353.589      6.687      0.601      5.728
2011   8   6   3  57   0     48.151    353.589      6.692      0.412      5.595
2011   8   6   3  58   0     48.151    353.589      6.722      0.894      5.728
2011   8   6   3  59   0     48.151    353.589      6.777      0.906      5.599
2011   8   6   4   0   0     48.151    353.589      6.741      0.522      5.535
2011   8   6   4   1   0     48.151    353.589      6.750      0.450      5.591
2011   8   6   4   2   0     48.151    353.589      6.634      0.514      5.059
2011   8   6   4   3   0     48.151    353.589      6.435      0.598      5.034
2011   8   6   4   4   0     48.151    353.589      6.151      0.805      5.080
2011   8   6   4   5   0     48.151    353.589      6.375      0.965      4.979
2011   8   6   4   6   0     48.151    353.589      6.289      1.200      4.966
2011   8   6   4   7   0     48.151    353.589      5.771      1.338      5.093
2011   8   6   4   8   0     48.151    353.589      5.458      1.495      5.137
2011   8   6   4   9   0     48.151    353.589      5.272      1.764      5.011
2011   8   6   4  10   0     48.151    353.589      5.345      2.078      5.126
2011   8   6   4  11   0     48.151    353.589      5.620      2.533      5.013
2011   8   6   4  12   0     48.151    353.589      4.965      3.026      5.170
2011   8   6   4  13   0     48.151    353.589      4.702      3.190      4.929
2011   8   6   4  14   0     48.151    353.589      4.798      3.117      4.736
2011   8   6   4  15   0     48.151    353.589      4.947      3.154      4.722
2011   8   6   4  16   0     48.151    353.589      4.924      3.398      4.751
2011   8   6   4  17   0     48.151    353.589      4.870      3.582      4.750
2011   8   6   4  18   0     48.151    353.589      4.631      3.976      4.808
2011   8   6   4  19   0     48.151    353.589      4.365      4.349      4.870
2011   8   6   4  20   0     48.151    353.589      4.156      4.615      4.914
2011   8   6   4  21   0     48.151    353.589      3.824      4.939      4.912
2011   8   6   4  22   0     48.151    353.589      3.546      5.288      4.997
2011   8   6   4  23   0     48.151    353.589      3.376      5.507      5.052
2011   8   6   4  24   0     48.151    353.589      3.112      5.881      5.177
2011   8   6   4  25   0     48.151    353.589      2.909      6.190      5.263
2011   8   6   4  26   0     48.151    353.589      2.845      6.197      5.246
2011   8   6   4  27   0     48.151    353.589      2.862      6.088      5.201
2011   8   6   4  28   0     48.151    353.589      2.847      6.070      5.209
2011   8   6   4  29   0     48.151    353.589      2.778      6.178      5.298
2011   8   6   4  30   0     48.151    353.589      2.582      6.402      5.354
2011   8   6   4  31   0     48.151    353.589      2.381      6.660      5.449
2011   8   6   4  32   0     48.151    353.589      2.236      6.817      5.522
2011   8   6   4  33   0     48.151    353.589      1.961      7.154      5.598
2011   8   6   4  34   0     48.151    353.589      1.749      7.411      5.697
2011   8   6   4  35   0     48.151    353.589      1.311      8.039      5.905
2011   8   6   4  36   0     48.151    353.589      0.817      8.846      6.236
2011   8   6   4  37   0     48.151    353.589      0.326      9.861      6.754
2011   8   6   4  38   0     48.151    353.589      0.454     10.757      7.484
2011   8   6   4  39   0     48.151    353.589      0.615     10.739      7.541
2011   8   6   4  40   0     48.151    353.589      0.920     10.670      7.590
2011   8   6   4  41   0     48.151    353.589      1.041     10.658      7.630
2011   8   6   4  42   0     48.151    353.589      1.747     11.039      7.370
2011   8   6   4  43   0     48.151    353.589      2.566     11.296      6.990
2011   8   6   4  44   0     48.151    353.589      2.150     10.679      7.064
2011   8   6   4  45   0     48.151    353.589      2.427     10.643      6.907
2011   8   6   4  46   0     48.151    353.589      3.216     11.105      6.457
2011   8   6   4  47   0     48.151    353.589      2.414     11.588      6.644
2011   8   6   4  48   0     48.151    353.589      1.625     12.115      7.161
2011   8   6   4  49   0     48.151    353.589      0.679     12.683      7.669
2011   8   6   4  50   0     48.151    353.589      0.592     12.544      7.696
2011   8   6   4  51   0     48.151    353.589      0.501     12.470      7.758
2011   8   6   4  52   0     48.151    353.589      0.609     12.422      7.912
2011   8   6   4  53   0     48.151    353.589      0.704     11.921      7.522
2011   8   6   4  54   0     48.151    353.589      0.547     12.086      7.646
2011   8   6   4  55   0     48.151    353.589      0.593     12.006      7.534
2011   8   6   4  56   0     48.151    353.589      0.484     12.073      7.599
2011   8   6   4  57   0     48.151    353.589      0.496     11.974      7.552
2011   8   6   4  58   0     48.151    353.589      0.954     11.665      7.199
2011   8   6   4  59   0     48.151    353.589      0.260     12.411      7.891
2011   8   6   5   0   0     48.151    353.589      0.577     12.766      8.408
2011   8   6   5   1   0     48.151    353.589      0.876     12.599      8.444
2011   8   6   5   2   0     48.151    353.589      1.042     12.355      8.369
2011   8   6   5   3   0     48.151    353.589      1.093     12.009      8.200
2011   8   6   5   4   0     48.151    353.589      1.224     11.584      8.013
2011   8   6   5   5   0     48.151    353.589      1.503     11.488      8.059
2011   8   6   5   6   0     48.151    353.589      1.741     11.381      7.929
2011   8   6   5   7   0     48.151    353.589      1.841     11.171      7.583
2011   8   6   5   8   0     48.151    353.589      2.009     11.306      7.400
2011   8   6   5   9   0     48.151    353.589      2.655     11.954      7.640
2011   8   6   5  10   0     48.151    353.589      3.408     13.183      7.987
2011   8   6   5  11   0     48.151    353.589      3.119     14.394      8.363
2011   8   6   5  12   0     48.151    353.589      2.748     15.604      8.626
2011   8   6   5  13   0     48.151    353.589      2.681     16.408      8.537
2011   8   6   5  14   0     48.151    353.589      2.574     16.730      8.462
2011   8   6   5  15   0     48.151    353.589      2.395     17.122      8.438
2011   8   6   5  16   0     48.151    353.589      2.231     17.531      8.435
2011   8   6   5  17   0     48.151    353.589      2.357     16.756      8.492
2011   8   6   5  18   0     48.151    353.589      2.407     15.958      8.544
2011   8   6   5  19   0     48.151    353.589      2.482     15.097      8.603
2011   8   6   5  20   0     48.151    353.589      2.295     15.989      8.558
2011   8   6   5  21   0     48.151    353.589      2.178     16.489      8.541
2011   8   6   5  22   0     48.151    353.589      2.027     17.274      8.515
2011   8   6   5  23   0     48.151    353.589      1.840     18.033      8.489
2011   8   6   5  24   0     48.151    353.589      1.665     18.408      8.489
2011   8   6   5  25   0     48.151    353.589      1.304     19.197      8.527
2011   8   6   5  26   0     48.151    353.589      1.320     20.054      8.456
2011   8   6   5  27   0     48.151    353.589      1.104     21.038      8.442
2011   8   6   5  28   0     48.151    353.589      0.505     22.416      8.450
2011   8   6   5  29   0     48.151    353.589      0.085     23.309      8.425
2011   8   6   5  30   0     48.151    353.589     -0.284     24.631      8.303
2011   8   6   5  31   0     48.151    353.589     -0.593     25.801      8.145
2011   8   6   5  32   0     48.151    353.589     -1.067     28.353      7.541
2011   8   6   5  33   0     48.151    353.589     -0.631     30.006      6.804
2011   8   6   5  34   0     48.151    353.589      0.086     32.063      5.966
2011   8   6   5  35   0     48.151    353.589      0.210     31.275      6.179
2011   8   6   5  36   0     48.151    353.589      0.487     31.330      6.138
2011   8   6   5  37   0     48.151    353.589      0.717     32.446      5.835
2011   8   6   5  38   0     48.151    353.589      0.924     32.236      5.914
2011   8   6   5  39   0     48.151    353.589      0.795     32.737      5.791
2011   8   6   5  40   0     48.151    353.589      0.826     33.431      5.603
2011   8   6   5  41   0     48.151    353.589      0.928     33.932      5.471
2011   8   6   5  42   0     48.151    353.589      1.082     33.485      5.623
2011   8   6   5  43   0     48.151    353.589      1.163     33.414      5.663
2011   8   6   5  44   0     48.151    353.589      1.221     34.250      5.450
2011   8   6   5  45   0     48.151    353.589      1.330     34.828      5.310
2011   8   6   5  46   0     48.151    353.589      1.611     34.898      5.332
2011   8   6   5  47   0     48.151    353.589      1.951     35.378      5.260
2011   8   6   5  48   0     48.151    353.589      1.754     32.077      6.094
2011   8   6   5  49   0     48.151    353.589      1.547     29.585      6.757
2011   8   6   5  50   0     48.151    353.589      2.078     29.814      6.783
2011   8   6   5  51   0     48.151    353.589      2.341     28.738      7.159
2011   8   6   5  52   0     48.151    353.589      2.908     26.617      7.952
2011   8   6   5  53   0     48.151    353.589      3.016     24.427      8.685
2011   8   6   5  54   0     48.151    353.589      3.621     21.734      9.767
2011   8   6   5  55   0     48.151    353.589      4.424     19.194     10.896
2011   8   6   5  56   0     48.151    353.589      5.680     18.560     12.821
2011   8   6   5  57   0     48.151    353.589      5.688     18.735     14.260
2011   8   6   5  58   0     48.151    353.589      5.284     19.926     14.736
2011   8   6   5  59   0     48.151    353.589      4.205     21.199     14.060
2011   8   6   6   0   0     48.151    353.589     -0.158     18.863     13.055
2011   8   6   6   1   0     48.151    353.589     -3.335     17.362     13.247
2011   8   6   6   2   0     48.151    353.589     -4.840     16.631     13.224
2011   8   6   6   3   0     48.151    353.589     -4.821     16.933     12.988
2011   8   6   6   4   0     48.151    353.589     -5.019     16.838     12.698
2011   8   6   6   5   0     48.151    353.589     -5.207     16.447     12.425
2011   8   6   6   6   0     48.151    353.589     -5.259     16.278     12.281
2011   8   6   6   7   0     48.151    353.589     -5.415     15.803     12.145
2011   8   6   6   8   0     48.151    353.589     -5.481     15.601     12.039
2011   8   6   6   9   0     48.151    353.589     -5.478     15.506     11.952
2011   8   6   6  10   0     48.151    353.589     -5.454     15.382     11.849
2011   8   6   6  11   0     48.151    353.589     -5.464     15.233     11.779
2011   8   6   6  12   0     48.151    353.589     -5.351     15.329     11.741
2011   8   6   6  13   0     48.151    353.589     -5.482     15.080     11.800
2011   8   6   6  14   0     48.151    353.589     -5.682     14.752     11.873
2011   8   6   6  15   0     48.151    353.589     -6.063     14.123     11.999
2011   8   6   6  16   0     48.151    353.589     -6.437     13.532     12.104
2011   8   6   6  17   0     48.151    353.589     -6.131     13.912     12.011
2011   8   6   6  18   0     48.151    353.589     -5.900     14.230     11.952
2011   8   6   6  19   0     48.151    353.589     -5.816     14.612     11.970
2011   8   6   6  20   0     48.151    353.589     -5.978     14.686     11.986
2011   8   6   6  21   0     48.151    353.589     -6.360     14.733     12.030
2011   8   6   6  22   0     48.151    353.589     -6.591     14.651     11.997
2011   8   6   6  23   0     48.151    353.589     -7.133     14.698     12.122
2011   8   6   6  24   0     48.151    353.589     -7.713     14.819     12.431
2011   8   6   6  25   0     48.151    353.589     -7.004     15.407     12.048
2011   8   6   6  26   0     48.151    353.589     -5.687     16.192     11.353
2011   8   6   6  27   0     48.151    353.589     -3.793     17.410     10.775
2011   8   6   6  28   0     48.151    353.589     -1.031     19.133     10.488
2011   8   6   6  29   0     48.151    353.589      0.747     19.551     10.974
2011   8   6   6  30   0     48.151    353.589      1.218     18.610     11.551
2011   8   6   6  31   0     48.151    353.589      1.370     18.362     11.733
2011   8   6   6  32   0     48.151    353.589      1.193     16.460     11.338
2011   8   6   6  33   0     48.151    353.589      2.031     14.475     12.541
2011   8   6   6  34   0     48.151    353.589      2.339     13.492     12.814
2011   8   6   6  35   0     48.151    353.589      2.317     12.782     12.572
2011   8   6   6  36   0     48.151    353.589      1.834     13.639     12.282
2011   8   6   6  37   0     48.151    353.589      1.073     14.788     11.835
2011   8   6   6  38   0     48.151    353.589      1.077     15.974     11.578
2011   8   6   6  39   0     48.151    353.589      1.519     17.195     11.434
2011   8   6   6  40   0     48.151    353.589      1.676     17.631     11.376
2011   8   6   6  41   0     48.151    353.589      2.583     18.358     11.554
2011   8   6   6  42   0     48.151    353.589      3.186     20.191     12.404
2011   8   6   6  43   0     48.151    353.589      3.560     21.999     13.121
2011   8   6   6  44   0     48.151    353.589      3.576     22.398     13.307
2011   8   6   6  45   0     48.151    353.589      3.590     22.622     13.115
2011   8   6   6  46   0     48.151    353.589      3.700     23.731     12.918
2011   8   6   6  47   0     48.151    353.589      3.814     25.213     13.120
2011   8   6   6  48   0     48.151    353.589      3.451     22.198     12.809
2011   8   6   6  49   0     48.151    353.589      2.847     19.136     12.042
2011   8   6   6  50   0     48.151    353.589      0.987     15.835     10.982
2011   8   6   6  51   0     48.151    353.589     -2.282     13.224     10.303
2011   8   6   6  52   0     48.151    353.589     -4.076     10.167      9.560
2011   8   6   6  53   0     48.151    353.589     -2.451      9.148      7.802
2011   8   6   6  54   0     48.151    353.589     -0.088      7.773      6.186
2011   8   6   6  55   0     48.151    353.589     -2.246      6.580      4.446
2011   8   6   6  56   0     48.151    353.589     -3.698      6.299      3.801
2011   8   6   6  57   0     48.151    353.589     -4.947      7.021      4.041
2011   8   6   6  58   0     48.151    353.589     -5.777      8.244      3.547
2011   8   6   6  59   0     48.151    353.589     -7.249     10.260      4.474
2011   8   6   7   0   0     48.151    353.589     -6.653     11.634      4.010
2011   8   6   7   1   0     48.151    353.589     -8.412     10.874      3.597
2011   8   6   7   2   0     48.151    353.589     -8.342      8.376      4.155
2011   8   6   7   3   0     48.151    353.589     -8.203      8.332      4.178
2011   8   6   7   4   0     48.151    353.589     -6.941     10.638      3.857
2011   8   6   7   5   0     48.151    353.589     -6.337     13.224      5.766
2011   8   6   7   6   0     48.151    353.589     -3.085     15.279      5.502
2011   8   6   7   7   0     48.151    353.589     -4.615     18.712      5.577
2011   8   6   7   8   0     48.151    353.589     -5.668     20.907      6.941
2011   8   6   7   9   0     48.151    353.589     -2.981     23.111      7.113
2011   8   6   7  10   0     48.151    353.589      0.717     25.622      7.362
2011   8   6   7  11   0     48.151    353.589      2.147     26.537      8.737
2011   8   6   7  12   0     48.151    353.589      2.827     27.060      9.673
2011   8   6   7  13   0     48.151    353.589      3.227     27.897     10.092
2011   8   6   7  14   0     48.151    353.589      3.274     28.149     10.438
2011   8   6   7  15   0     48.151    353.589      2.792     28.974      9.769
2011   8   6   7  16   0     48.151    353.589      1.920     30.547      7.596
2011   8   6   7  17   0     48.151    353.589      5.256     33.822      2.033
2011   8   6   7  18   0     48.151    353.589      6.194     35.384     -1.033
2011   8   6   7  19   0     48.151    353.589      6.114     35.076     -0.587
2011   8   6   7  20   0     48.151    353.589      6.148     35.089     -0.719
2011   8   6   7  21   0     48.151    353.589      6.001     34.564     -0.108
2011   8   6   7  22   0     48.151    353.589      5.985     34.488     -0.038
2011   8   6   7  23   0     48.151    353.589      6.117     34.776     -0.703
2011   8   6   7  24   0     48.151    353.589      6.107     34.922     -0.801
2011   8   6   7  25   0     48.151    353.589      6.151     35.162     -1.057
2011   8   6   7  26   0     48.151    353.589      6.120     34.808     -0.993
2011   8   6   7  27   0     48.151    353.589      6.139     34.743     -1.133
2011   8   6   7  28   0     48.151    353.589      6.154     34.814     -1.251
2011   8   6   7  29   0     48.151    353.589      5.968     34.587     -0.430
2011   8   6   7  30   0     48.151    353.589      5.900     34.495     -0.165
2011   8   6   7  31   0     48.151    353.589      5.757     34.308      0.267
2011   8   6   7  32   0     48.151    353.589      5.675     33.911      0.582
2011   8   6   7  33   0     48.151    353.589      5.736     33.686      0.322
2011   8   6   7  34   0     48.151    353.589      5.619     33.596      0.594
2011   8   6   7  35   0     48.151    353.589      5.289     33.292      1.441
2011   8   6   7  36   0     48.151    353.589      5.211     33.180      1.560
2011   8   6   7  37   0     48.151    353.589      4.963     32.668      2.167
2011   8   6   7  38   0     48.151    353.589      4.393     31.992      3.337
2011   8   6   7  39   0     48.151    353.589      4.222     31.489      3.812
2011   8   6   7  40   0     48.151    353.589      3.898     30.706      4.625
2011   8   6   7  41   0     48.151    353.589      3.751     30.380      4.922
2011   8   6   7  42   0     48.151    353.589      3.484     29.761      5.526
2011   8   6   7  43   0     48.151    353.589      3.312     29.019      6.093
2011   8   6   7  44   0     48.151    353.589      3.570     28.655      5.979
2011   8   6   7  45   0     48.151    353.589      2.990     27.813      7.004
2011   8   6   7  46   0     48.151    353.589      2.496     27.485      7.555
2011   8   6   7  47   0     48.151    353.589      1.474     27.017      8.289
2011   8   6   7  48   0     48.151    353.589      1.357     26.989      7.963
2011   8   6   7  49   0     48.151    353.589      2.000     27.073      7.921
2011   8   6   7  50   0     48.151    353.589      2.187     26.998      7.780
2011   8   6   7  51   0     48.151    353.589      1.257     26.419      7.843
2011   8   6   7  52   0     48.151    353.589      0.854     26.094      6.794
2011   8   6   7  53   0     48.151    353.589      1.607     25.094      6.844
2011   8   6   7  54   0     48.151    353.589      3.440     23.074      7.303
2011   8   6   7  55   0     48.151    353.589      3.578     21.690      6.763
2011   8   6   7  56   0     48.151    353.589      3.300     21.139      6.126
2011   8   6   7  57   0     48.151    353.589      2.944     20.848      5.533
2011   8   6   7  58   0     48.151    353.589      2.823     20.190      5.193
2011   8   6   7  59   0     48.151    353.589      2.749     19.693      4.967
2011   8   6   8   0   0     48.151    353.589      2.318     19.022      4.338
2011   8   6   8   1   0     48.151    353.589      2.252     17.992      4.146
2011   8   6   8   2   0     48.151    353.589      1.520     16.864      3.761
2011   8   6   8   3   0     48.151    353.589     -1.843     14.662      3.034
2011   8   6   8   4   0     48.151    353.589     -0.877     12.772      1.920
2011   8   6   8   5   0     48.151    353.589     -0.502     12.920      1.328
2011   8   6   8   6   0     48.151    353.589     -0.358     12.804      1.363
2011   8   6   8   7   0     48.151    353.589     -0.329     12.452      1.799
2011   8   6   8   8   0     48.151    353.589     -0.749     13.096      2.603
2011   8   6   8   9   0     48.151    353.589     -0.793     13.694      2.821
2011   8   6   8  10   0     48.151    353.589      0.520     13.906      2.954
2011   8   6   8  11   0     48.151    353.589     -0.174     13.019      2.705
2011   8   6   8  12   0     48.151    353.589      0.840     11.854      1.584
2011   8   6   8  13   0     48.151    353.589      1.612     12.141      0.539
2011   8   6   8  14   0     48.151    353.589      2.415      8.944     -0.016
2011   8   6   8  15   0     48.151    353.589      1.605      8.553     -0.279
2011   8   6   8  16   0     48.151    353.589      2.209      7.150     -0.168
2011   8   6   8  17   0     48.151    353.589      3.518      6.103      0.570
2011   8   6   8  18   0     48.151    353.589      5.031      5.354      0.981
2011   8   6   8  19   0     48.151    353.589      5.149      5.132      0.479
2011   8   6   8  20   0     48.151    353.589      4.956      4.738      0.519
2011   8   6   8  21   0     48.151    353.589      4.984      4.543      0.595
2011   8   6   8  22   0     48.151    353.589      4.495      4.577      0.863
2011   8   6   8  23   0     48.151    353.589      4.875      4.323      0.970
2011   8   6   8  24   0     48.151    353.589      4.345      4.128      0.411
2011   8   6   8  25   0     48.151    353.589      2.950      4.411      0.457
2011   8   6   8  26   0     48.151    353.589      3.927      4.454      0.591
2011   8   6   8  27   0     48.151    353.589      3.333      4.868      0.888
2011   8   6   8  28   0     48.151    353.589      3.109      4.978      0.893
2011   8   6   8  29   0     48.151    353.589      2.401      6.055      0.642
2011   8   6   8  30   0     48.151    353.589      1.199      6.749      0.276
2011   8   6   8  31   0     48.151    353.589      0.760      8.575      0.116
2011   8   6   8  32   0     48.151    353.589     -0.456      9.737     -0.172
2011   8   6   8  33   0     48.151    353.589      1.773     12.394     -0.481
2011   8   6   8  34   0     48.151    353.589      0.772     12.911      0.213
2011   8   6   8  35   0     48.151    353.589      0.421     13.936      0.256
2011   8   6   8  36   0     48.151    353.589      0.072     14.148      0.527
2011   8   6   8  37   0     48.151    353.589     -0.088     14.348      0.431
2011   8   6   8  38   0     48.151    353.589     -0.457     14.667      0.465
2011   8   6   8  39   0     48.151    353.589     -0.101     14.477      0.584
2011   8   6   8  40   0     48.151    353.589     -0.286     14.799      0.389
2011   8   6   8  41   0     48.151    353.589      0.088     14.616      0.464
2011   8   6   8  42   0     48.151    353.589      0.339     14.551      0.764
2011   8   6   8  43   0     48.151    353.589      0.331     14.745      1.567
2011   8   6   8  44   0     48.151    353.589      0.422     14.921      1.617
2011   8   6   8  45   0     48.151    353.589      0.918     14.631      1.660
2011   8   6   8  46   0     48.151    353.589      2.505     14.272      1.880
2011   8   6   8  47   0     48.151    353.589      3.576     14.624      1.903
2011   8   6   8  48   0     48.151    353.589      3.883     13.708      2.197
2011   8   6   8  49   0     48.151    353.589      5.457     13.421      2.546
2011   8   6   8  50   0     48.151    353.589      5.141     12.276      2.835
2011   8   6   8  51   0     48.151    353.589      4.814     12.111      2.848
2011   8   6   8  52   0     48.151    353.589      4.509     11.941      2.862
2011   8   6   8  53   0     48.151    353.589      4.803     11.510      3.205
2011   8   6   8  54   0     48.151    353.589      5.016     11.507      3.333
2011   8   6   8  55   0     48.151    353.589      5.291     11.463      3.402
2011   8   6   8  56   0     48.151    353.589      5.397     11.594      3.365
2011   8   6   8  57   0     48.151    353.589      5.006     12.057      3.166
2011   8   6   8  58   0     48.151    353.589      4.555     12.492      2.996
2011   8   6   8  59   0     48.151    353.589      4.387     12.668      2.938
2011   8   6   9   0   0     48.151    353.589      4.609     12.483      2.881
2011   8   6   9   1   0     48.151    353.589      5.101     12.412      2.887
2011   8   6   9   2   0     48.151    353.589      6.112     12.309      3.062
2011   8   6   9   3   0     48.151    353.589      6.768     12.759      2.994
2011   8   6   9   4   0     48.151    353.589      7.228     12.773      3.035
2011   8   6   9   5   0     48.151    353.589      8.309     13.145      3.038
2011   8   6   9   6   0     48.151    353.589      9.884     12.638      3.576
2011   8   6   9   7   0     48.151    353.589     10.953     12.793      3.935
2011   8   6   9   8   0     48.151    353.589     11.002     13.954      3.982
2011   8   6   9   9   0     48.151    353.589     10.651     15.226      3.832
2011   8   6   9  10   0     48.151    353.589      9.855     16.804      3.176
2011   8   6   9  11   0     48.151    353.589      9.278     17.861      2.379
2011   8   6   9  12   0     48.151    353.589      8.318     18.520      1.713
2011   8   6   9  13   0     48.151    353.589      9.659     18.228      1.727
2011   8   6   9  14   0     48.151    353.589     11.514     16.709      3.661
2011   8   6   9  15   0     48.151    353.589     14.555     10.995      5.308
2011   8   6   9  16   0     48.151    353.589     15.151      8.684      5.255
2011   8   6   9  17   0     48.151    353.589     15.208      7.998      5.219
